Minute of Year [min]	Potsdam.Altitude [Deg]	Potsdam.Azimuth [Deg]	Shanghai.Altitude [Deg]	Shanghai.Azimuth [Deg]	Kaxgar.Altitude [Deg]	Kaxgar.Azimuth [Deg]	Singapur.Altitude [Deg]	Singapur.Azimuth [Deg]	Lima.Altitude [Deg]	Lima.Azimuth [Deg]	Denver.Altitude [Deg]	Denver.Azimuth [Deg]	Barrow.Altitude [Deg]	Barrow.Azimuth [Deg]	Melbourne.Altitude [Deg]	Melbourne.Azimuth [Deg]
380160	-37.8181	359.677	-58.8954	6.0251	-34.9033	304.769	-75.6068	274.597	-77.7908	182.093	-50.4091	2.85356	-17.7001	338.847	-51.995	185.679
380161	-37.8189	359.993	-58.8724	6.50693	-35.0618	305.005	-75.856	274.681	-77.7969	180.91	-50.3991	3.24558	-17.7291	339.108	-52.0137	185.274
380162	-37.8187	0.309765	-58.8475	6.98809	-35.2199	305.242	-76.1051	274.769	-77.798	179.727	-50.3879	3.63743	-17.7578	339.368	-52.0309	184.869
380163	-37.8178	0.626313	-58.8209	7.46854	-35.3776	305.48	-76.3543	274.859	-77.794	178.544	-50.3753	4.02909	-17.7862	339.629	-52.0467	184.463
380164	-37.816	0.942849	-58.7925	7.94822	-35.5348	305.718	-76.6034	274.953	-77.785	177.363	-50.3614	4.42052	-17.8142	339.89	-52.0611	184.057
380165	-37.8133	1.25937	-58.7623	8.4271	-35.6915	305.958	-76.8525	275.05	-77.771	176.183	-50.3462	4.81172	-17.8419	340.151	-52.0742	183.651
380166	-37.8098	1.57586	-58.7303	8.90512	-35.8477	306.199	-77.1015	275.151	-77.7519	175.007	-50.3297	5.20265	-17.8692	340.413	-52.0858	183.244
380167	-37.8055	1.89231	-58.6966	9.38224	-36.0035	306.44	-77.3505	275.255	-77.7278	173.835	-50.312	5.5933	-17.8962	340.674	-52.096	182.838
380168	-37.8003	2.20873	-58.6611	9.85841	-36.1587	306.683	-77.5994	275.364	-77.6988	172.668	-50.2928	5.98365	-17.9228	340.935	-52.1048	182.431
380169	-37.7943	2.5251	-58.6239	10.3336	-36.3135	306.926	-77.8483	275.478	-77.6649	171.507	-50.2724	6.37368	-17.9491	341.197	-52.1122	182.024
380170	-37.7874	2.84141	-58.5849	10.8078	-36.4678	307.171	-78.0972	275.595	-77.626	170.352	-50.2507	6.76337	-17.9751	341.458	-52.1182	181.617
380171	-37.7797	3.15766	-58.5442	11.2808	-36.6216	307.416	-78.346	275.718	-77.5823	169.205	-50.2277	7.15268	-18.0007	341.719	-52.1228	181.21
380172	-37.7711	3.47385	-58.5017	11.7528	-36.7749	307.663	-78.5947	275.846	-77.5339	168.066	-50.2034	7.54162	-18.0259	341.981	-52.126	180.802
380173	-37.7618	3.78995	-58.4576	12.2236	-36.9277	307.91	-78.8434	275.98	-77.4806	166.937	-50.1778	7.93014	-18.0508	342.243	-52.1278	180.395
380174	-37.7515	4.10597	-58.4117	12.6932	-37.0799	308.159	-79.092	276.119	-77.4228	165.817	-50.1509	8.31824	-18.0754	342.505	-52.1282	179.988
380175	-37.7405	4.4219	-58.3641	13.1615	-37.2317	308.408	-79.3406	276.265	-77.3603	164.708	-50.1228	8.7059	-18.0996	342.766	-52.1272	179.58
380176	-37.7286	4.73774	-58.3148	13.6286	-37.3829	308.658	-79.5891	276.418	-77.2932	163.61	-50.0933	9.09309	-18.1234	343.028	-52.1247	179.173
380177	-37.7158	5.05347	-58.2638	14.0943	-37.5336	308.91	-79.8375	276.579	-77.2217	162.523	-50.0625	9.47979	-18.147	343.29	-52.1209	178.766
380178	-37.7022	5.36908	-58.2111	14.5587	-37.6838	309.162	-80.0859	276.747	-77.1458	161.449	-50.0305	9.86599	-18.1701	343.552	-52.1156	178.359
380179	-37.6878	5.68458	-58.1568	15.0217	-37.8334	309.415	-80.3341	276.924	-77.0656	160.388	-49.9972	10.2517	-18.1929	343.814	-52.109	177.952
380180	-37.6726	5.99995	-58.1008	15.4832	-37.9825	309.67	-80.5823	277.11	-76.9811	159.34	-49.9627	10.6368	-18.2154	344.077	-52.1009	177.545
380181	-37.6565	6.31519	-58.0431	15.9433	-38.131	309.925	-80.8303	277.306	-76.8925	158.305	-49.9268	11.0214	-18.2375	344.339	-52.0915	177.138
380182	-37.6395	6.63029	-57.9838	16.4019	-38.279	310.182	-81.0782	277.512	-76.7998	157.285	-49.8897	11.4054	-18.2592	344.601	-52.0806	176.731
380183	-37.6218	6.94524	-57.9228	16.859	-38.4265	310.439	-81.3261	277.731	-76.7031	156.278	-49.8513	11.7887	-18.2806	344.863	-52.0683	176.325
380184	-37.6032	7.26004	-57.8602	17.3145	-38.5733	310.698	-81.5738	277.962	-76.6025	155.287	-49.8117	12.1715	-18.3016	345.126	-52.0547	175.919
380185	-37.5838	7.57468	-57.796	17.7684	-38.7196	310.958	-81.8213	278.207	-76.4981	154.31	-49.7708	12.5536	-18.3223	345.388	-52.0396	175.513
380186	-37.5635	7.88915	-57.7302	18.2206	-38.8653	311.218	-82.0687	278.467	-76.3899	153.348	-49.7287	12.9351	-18.3426	345.651	-52.0231	175.107
380187	-37.5424	8.20345	-57.6628	18.6712	-39.0105	311.48	-82.3159	278.744	-76.2781	152.401	-49.6853	13.316	-18.3626	345.914	-52.0053	174.702
380188	-37.5205	8.51756	-57.5937	19.1201	-39.155	311.743	-82.563	279.039	-76.1628	151.47	-49.6407	13.6961	-18.3822	346.176	-51.986	174.297
380189	-37.4978	8.83149	-57.5231	19.5673	-39.299	312.007	-82.8098	279.354	-76.044	150.553	-49.5949	14.0755	-18.4015	346.439	-51.9654	173.893
380190	-37.4742	9.14522	-57.4509	20.0127	-39.4424	312.272	-83.0564	279.691	-75.9219	149.652	-49.5478	14.4542	-18.4204	346.702	-51.9434	173.489
380191	-37.4498	9.45876	-57.3772	20.4564	-39.5851	312.538	-83.3027	280.053	-75.7964	148.767	-49.4994	14.8322	-18.4389	346.965	-51.9199	173.085
380192	-37.4246	9.77208	-57.3019	20.8983	-39.7273	312.805	-83.5488	280.443	-75.6677	147.897	-49.4499	15.2094	-18.4571	347.228	-51.8951	172.681
380193	-37.3985	10.0852	-57.2251	21.3383	-39.8689	313.074	-83.7945	280.863	-75.536	147.042	-49.3991	15.5858	-18.4749	347.49	-51.8689	172.279
380194	-37.3717	10.3981	-57.1468	21.7765	-40.0098	313.343	-84.0399	281.317	-75.4012	146.203	-49.3471	15.9615	-18.4924	347.754	-51.8414	171.876
380195	-37.344	10.7108	-57.0669	22.2129	-40.1501	313.614	-84.2849	281.811	-75.2634	145.379	-49.294	16.3363	-18.5095	348.017	-51.8124	171.474
380196	-37.3155	11.0232	-56.9855	22.6473	-40.2898	313.885	-84.5294	282.348	-75.1228	144.57	-49.2396	16.7103	-18.5263	348.28	-51.7821	171.073
380197	-37.2862	11.3354	-56.9026	23.0799	-40.4288	314.158	-84.7734	282.936	-74.9794	143.775	-49.184	17.0836	-18.5426	348.543	-51.7505	170.672
380198	-37.2561	11.6473	-56.8183	23.5105	-40.5672	314.432	-85.0168	283.58	-74.8333	142.996	-49.1272	17.4559	-18.5587	348.806	-51.7174	170.272
380199	-37.2251	11.959	-56.7325	23.9391	-40.705	314.707	-85.2595	284.291	-74.6845	142.231	-49.0692	17.8274	-18.5743	349.069	-51.683	169.872
380200	-37.1934	12.2705	-56.6452	24.3658	-40.8421	314.983	-85.5014	285.078	-74.5332	141.481	-49.01	18.198	-18.5896	349.333	-51.6473	169.473
380201	-37.1608	12.5816	-56.5564	24.7905	-40.9785	315.26	-85.7424	285.954	-74.3794	140.745	-48.9497	18.5678	-18.6046	349.596	-51.6101	169.075
380202	-37.1274	12.8925	-56.4663	25.2132	-41.1143	315.539	-85.9822	286.934	-74.2233	140.024	-48.8881	18.9366	-18.6192	349.86	-51.5717	168.677
380203	-37.0932	13.2032	-56.3747	25.6339	-41.2494	315.818	-86.2207	288.038	-74.0647	139.316	-48.8254	19.3046	-18.6334	350.123	-51.5319	168.28
380204	-37.0583	13.5135	-56.2817	26.0526	-41.3838	316.099	-86.4577	289.291	-73.9039	138.622	-48.7616	19.6716	-18.6472	350.387	-51.4907	167.884
380205	-37.0225	13.8235	-56.1873	26.4692	-41.5176	316.381	-86.6927	290.721	-73.741	137.941	-48.6966	20.0376	-18.6607	350.65	-51.4482	167.488
380206	-36.9859	14.1333	-56.0915	26.8838	-41.6506	316.664	-86.9254	292.37	-73.5758	137.274	-48.6304	20.4027	-18.6738	350.914	-51.4044	167.093
380207	-36.9485	14.4428	-55.9943	27.2963	-41.783	316.948	-87.1551	294.285	-73.4086	136.619	-48.5631	20.7669	-18.6866	351.177	-51.3593	166.699
380208	-36.9103	14.7519	-55.8957	27.7067	-41.9147	317.234	-87.381	296.534	-73.2394	135.977	-48.4946	21.1301	-18.699	351.441	-51.3128	166.306
380209	-36.8713	15.0608	-55.7958	28.115	-42.0456	317.52	-87.6022	299.202	-73.0683	135.348	-48.425	21.4922	-18.711	351.705	-51.265	165.914
380210	-36.8315	15.3693	-55.6946	28.5212	-42.1759	317.808	-87.8172	302.403	-72.8952	134.732	-48.3543	21.8534	-18.7227	351.968	-51.2159	165.522
380211	-36.791	15.6775	-55.592	28.9253	-42.3054	318.097	-88.0239	306.288	-72.7204	134.127	-48.2824	22.2136	-18.734	352.232	-51.1655	165.131
380212	-36.7496	15.9853	-55.4881	29.3273	-42.4342	318.387	-88.2194	311.051	-72.5437	133.534	-48.2095	22.5728	-18.7449	352.496	-51.1137	164.741
380213	-36.7074	16.2929	-55.383	29.7272	-42.5623	318.678	-88.3997	316.937	-72.3653	132.952	-48.1354	22.9309	-18.7555	352.76	-51.0607	164.352
380214	-36.6645	16.6001	-55.2765	30.1249	-42.6896	318.971	-88.559	324.215	-72.1853	132.382	-48.0602	23.288	-18.7657	353.024	-51.0064	163.964
380215	-36.6208	16.9069	-55.1687	30.5205	-42.8162	319.264	-88.6896	333.115	-72.0036	131.824	-47.984	23.6441	-18.7755	353.288	-50.9508	163.577
380216	-36.5763	17.2134	-55.0596	30.914	-42.9421	319.559	-88.7823	343.664	-71.8204	131.276	-47.9066	23.9991	-18.785	353.551	-50.8939	163.19
380217	-36.531	17.5196	-54.9494	31.3053	-43.0671	319.856	-88.8281	355.477	-71.6356	130.738	-47.8281	24.353	-18.7941	353.815	-50.8358	162.805
380218	-36.4849	17.8254	-54.8378	31.6945	-43.1914	320.153	-88.8214	7.68742	-71.4493	130.211	-47.7486	24.7058	-18.8028	354.079	-50.7764	162.421
380219	-36.4381	18.1308	-54.725	32.0815	-43.315	320.451	-88.7632	19.2484	-71.2617	129.694	-47.6679	25.0576	-18.8112	354.344	-50.7157	162.037
380220	-36.3905	18.4358	-54.611	32.4663	-43.4378	320.751	-88.6601	29.4015	-71.0726	129.187	-47.5863	25.4083	-18.8192	354.608	-50.6538	161.655
380221	-36.3421	18.7405	-54.4958	32.849	-43.5597	321.052	-88.5215	37.8814	-70.8821	128.69	-47.5035	25.7579	-18.8268	354.872	-50.5906	161.274
380222	-36.293	19.0448	-54.3794	33.2296	-43.6809	321.354	-88.3563	44.7857	-70.6904	128.202	-47.4197	26.1064	-18.8341	355.136	-50.5261	160.893
380223	-36.243	19.3487	-54.2618	33.6079	-43.8013	321.658	-88.1717	50.365	-70.4973	127.724	-47.3349	26.4537	-18.841	355.4	-50.4604	160.514
380224	-36.1924	19.6522	-54.143	33.9841	-43.9209	321.962	-87.973	54.8875	-70.3031	127.254	-47.249	26.8	-18.8475	355.664	-50.3935	160.136
380225	-36.1409	19.9553	-54.0231	34.3582	-44.0397	322.268	-87.764	58.5846	-70.1076	126.794	-47.1621	27.1451	-18.8537	355.928	-50.3254	159.759
380226	-36.0887	20.2581	-53.902	34.7301	-44.1577	322.575	-87.5474	61.6397	-69.911	126.342	-47.0741	27.4891	-18.8594	356.192	-50.256	159.383
380227	-36.0358	20.5604	-53.7798	35.0998	-44.2749	322.883	-87.3249	64.1933	-69.7133	125.898	-46.9851	27.832	-18.8649	356.456	-50.1855	159.008
380228	-35.9821	20.8623	-53.6565	35.4674	-44.3912	323.193	-87.0979	66.3515	-69.5144	125.463	-46.8951	28.1737	-18.8699	356.721	-50.1137	158.634
380229	-35.9276	21.1638	-53.532	35.8329	-44.5067	323.503	-86.8674	68.1947	-69.3145	125.036	-46.8041	28.5142	-18.8746	356.985	-50.0407	158.261
380230	-35.8724	21.4649	-53.4064	36.1962	-44.6213	323.815	-86.6341	69.7842	-69.1135	124.617	-46.7121	28.8536	-18.8789	357.249	-49.9665	157.89
380231	-35.8165	21.7656	-53.2798	36.5573	-44.7351	324.128	-86.3985	71.167	-68.9116	124.205	-46.6191	29.1919	-18.8829	357.513	-49.8912	157.519
380232	-35.7598	22.0658	-53.152	36.9163	-44.848	324.443	-86.1612	72.3796	-68.7086	123.801	-46.5251	29.529	-18.8864	357.778	-49.8146	157.15
380233	-35.7023	22.3656	-53.0232	37.2732	-44.9601	324.758	-85.9223	73.4509	-68.5047	123.404	-46.4301	29.8649	-18.8896	358.042	-49.7369	156.782
380234	-35.6442	22.665	-52.8934	37.6279	-45.0713	325.075	-85.6821	74.4036	-68.2999	123.014	-46.3342	30.1996	-18.8925	358.306	-49.658	156.415
380235	-35.5852	22.9639	-52.7625	37.9805	-45.1816	325.393	-85.4409	75.2558	-68.0942	122.631	-46.2373	30.5332	-18.8949	358.57	-49.578	156.049
380236	-35.5256	23.2624	-52.6305	38.331	-45.2911	325.713	-85.1988	76.0225	-67.8876	122.255	-46.1394	30.8656	-18.897	358.835	-49.4968	155.685
380237	-35.4652	23.5605	-52.4975	38.6794	-45.3996	326.033	-84.9559	76.7157	-67.6802	121.886	-46.0406	31.1968	-18.8988	359.099	-49.4145	155.322
380238	-35.4041	23.8581	-52.3635	39.0257	-45.5073	326.355	-84.7124	77.3453	-67.4719	121.523	-45.9408	31.5268	-18.9001	359.363	-49.331	154.96
380239	-35.3423	24.1552	-52.2285	39.3699	-45.614	326.678	-84.4682	77.9196	-67.2629	121.166	-45.84	31.8556	-18.9011	359.628	-49.2464	154.599
380240	-35.2797	24.4519	-52.0926	39.712	-45.7199	327.002	-84.2236	78.4455	-67.053	120.816	-45.7384	32.1833	-18.9017	359.892	-49.1606	154.239
380241	-35.2165	24.7482	-51.9556	40.052	-45.8248	327.327	-83.9785	78.9288	-66.8425	120.472	-45.6358	32.5097	-18.902	0.156158	-49.0738	153.881
380242	-35.1525	25.0439	-51.8177	40.3899	-45.9288	327.654	-83.733	79.3744	-66.6311	120.133	-45.5323	32.835	-18.9018	0.420473	-48.9858	153.524
380243	-35.0878	25.3393	-51.6788	40.7258	-46.0319	327.982	-83.4872	79.7866	-66.4191	119.801	-45.4278	33.159	-18.9014	0.684787	-48.8968	153.168
380244	-35.0224	25.6341	-51.5389	41.0596	-46.134	328.311	-83.2411	80.1689	-66.2063	119.474	-45.3225	33.4819	-18.9005	0.949099	-48.8066	152.814
380245	-34.9563	25.9285	-51.3982	41.3914	-46.2352	328.641	-82.9947	80.5245	-65.9929	119.152	-45.2162	33.8035	-18.8993	1.21341	-48.7154	152.461
380246	-34.8894	26.2224	-51.2565	41.7211	-46.3354	328.973	-82.748	80.8561	-65.7788	118.836	-45.1091	34.124	-18.8976	1.47771	-48.6231	152.109
380247	-34.8219	26.5158	-51.1139	42.0488	-46.4347	329.305	-82.5011	81.166	-65.5641	118.525	-45.0011	34.4432	-18.8957	1.74201	-48.5297	151.758
380248	-34.7537	26.8087	-50.9703	42.3745	-46.533	329.639	-82.2541	81.4563	-65.3487	118.219	-44.8922	34.7612	-18.8933	2.0063	-48.4352	151.409
380249	-34.6848	27.1012	-50.8259	42.6982	-46.6304	329.975	-82.0068	81.7287	-65.1327	117.918	-44.7824	35.0781	-18.8906	2.27059	-48.3397	151.061
380250	-34.6152	27.3931	-50.6806	43.0198	-46.7267	330.311	-81.7594	81.9849	-64.9162	117.622	-44.6717	35.3937	-18.8876	2.53486	-48.2432	150.714
380251	-34.5449	27.6846	-50.5344	43.3395	-46.8221	330.648	-81.5118	82.2264	-64.699	117.33	-44.5602	35.7081	-18.8841	2.79913	-48.1456	150.369
380252	-34.4739	27.9755	-50.3874	43.6572	-46.9165	330.987	-81.264	82.4542	-64.4813	117.044	-44.4478	36.0214	-18.8803	3.06338	-48.0469	150.025
380253	-34.4022	28.266	-50.2394	43.973	-47.0099	331.327	-81.0162	82.6696	-64.2631	116.761	-44.3346	36.3334	-18.8761	3.32762	-47.9473	149.682
380254	-34.3299	28.556	-50.0907	44.2868	-47.1022	331.668	-80.7682	82.8736	-64.0442	116.484	-44.2205	36.6442	-18.8715	3.59185	-47.8466	149.341
380255	-34.2568	28.8455	-49.9411	44.5986	-47.1936	332.01	-80.5202	83.067	-63.8249	116.21	-44.1056	36.9538	-18.8666	3.85606	-47.7449	149.001
380256	-34.1831	29.1345	-49.7907	44.9085	-47.284	332.354	-80.272	83.2506	-63.6051	115.941	-43.9899	37.2622	-18.8613	4.12026	-47.6422	148.662
380257	-34.1087	29.423	-49.6394	45.2165	-47.3733	332.698	-80.0237	83.4252	-63.3847	115.676	-43.8734	37.5694	-18.8556	4.38443	-47.5385	148.325
380258	-34.0337	29.7109	-49.4874	45.5226	-47.4616	333.044	-79.7754	83.5914	-63.1639	115.415	-43.756	37.8754	-18.8496	4.6486	-47.4338	147.988
380259	-33.958	29.9984	-49.3346	45.8268	-47.5488	333.391	-79.5269	83.7499	-62.9426	115.158	-43.6378	38.1802	-18.8432	4.91274	-47.3281	147.654
380260	-33.8816	30.2853	-49.1809	46.1291	-47.635	333.739	-79.2784	83.9011	-62.7209	114.905	-43.5188	38.4838	-18.8364	5.17686	-47.2215	147.32
380261	-33.8046	30.5718	-49.0265	46.4295	-47.7202	334.088	-79.0298	84.0455	-62.4987	114.656	-43.3991	38.7862	-18.8293	5.44096	-47.1139	146.988
380262	-33.7269	30.8577	-48.8713	46.7281	-47.8043	334.439	-78.7812	84.1837	-62.276	114.41	-43.2785	39.0874	-18.8218	5.70503	-47.0053	146.658
380263	-33.6485	31.1431	-48.7154	47.0248	-47.8873	334.79	-78.5325	84.3159	-62.053	114.168	-43.1572	39.3875	-18.8139	5.96908	-46.8958	146.328
380264	-33.5695	31.4279	-48.5587	47.3197	-47.9692	335.143	-78.2837	84.4427	-61.8295	113.93	-43.035	39.6863	-18.8057	6.23311	-46.7853	146
380265	-33.4899	31.7123	-48.4012	47.6128	-48.0501	335.496	-78.0349	84.5642	-61.6056	113.695	-42.9121	39.984	-18.7971	6.49711	-46.6739	145.674
380266	-33.4096	31.9961	-48.243	47.904	-48.1299	335.851	-77.786	84.6809	-61.3813	113.463	-42.7885	40.2804	-18.7881	6.76108	-46.5616	145.349
380267	-33.3287	32.2794	-48.0841	48.1935	-48.2086	336.207	-77.5371	84.793	-61.1566	113.235	-42.6641	40.5757	-18.7788	7.02503	-46.4483	145.025
380268	-33.2471	32.5622	-47.9245	48.4812	-48.2862	336.564	-77.2882	84.9009	-60.9315	113.01	-42.5389	40.8698	-18.7691	7.28894	-46.3342	144.702
380269	-33.1649	32.8445	-47.7642	48.7671	-48.3627	336.922	-77.0392	85.0046	-60.706	112.788	-42.413	41.1627	-18.759	7.55283	-46.2191	144.381
380270	-33.0821	33.1262	-47.6031	49.0512	-48.438	337.281	-76.7901	85.1046	-60.4802	112.569	-42.2863	41.4545	-18.7485	7.81668	-46.1031	144.061
380271	-32.9986	33.4074	-47.4414	49.3337	-48.5123	337.642	-76.5411	85.2009	-60.2541	112.353	-42.1589	41.745	-18.7377	8.0805	-45.9863	143.743
380272	-32.9145	33.688	-47.279	49.6143	-48.5854	338.003	-76.2919	85.2938	-60.0276	112.141	-42.0308	42.0344	-18.7265	8.34428	-45.8685	143.425
380273	-32.8298	33.9682	-47.1159	49.8933	-48.6574	338.365	-76.0428	85.3834	-59.8007	111.931	-41.902	42.3227	-18.715	8.60803	-45.7499	143.11
380274	-32.7445	34.2478	-46.9521	50.1706	-48.7283	338.728	-75.7936	85.47	-59.5735	111.724	-41.7724	42.6098	-18.7031	8.87174	-45.6304	142.795
380275	-32.6585	34.5268	-46.7877	50.4461	-48.798	339.093	-75.5444	85.5537	-59.346	111.519	-41.6422	42.8957	-18.6909	9.13542	-45.51	142.482
380276	-32.572	34.8054	-46.6226	50.72	-48.8666	339.458	-75.2952	85.6346	-59.1182	111.318	-41.5112	43.1805	-18.6782	9.39906	-45.3888	142.17
380277	-32.4848	35.0834	-46.4568	50.9923	-48.934	339.824	-75.0459	85.7129	-58.8901	111.119	-41.3796	43.4641	-18.6652	9.66266	-45.2667	141.86
380278	-32.3971	35.3608	-46.2905	51.2628	-49.0003	340.192	-74.7967	85.7887	-58.6616	110.923	-41.2472	43.7466	-18.6519	9.92621	-45.1438	141.551
380279	-32.3087	35.6377	-46.1235	51.5318	-49.0654	340.56	-74.5473	85.8621	-58.4329	110.729	-41.1142	44.0279	-18.6381	10.1897	-45.0201	141.243
380280	-32.2197	35.9141	-45.9558	51.7991	-49.1294	340.929	-74.298	85.9333	-58.2039	110.538	-40.9805	44.3081	-18.6241	10.4532	-44.8955	140.936
380281	-32.1302	36.1899	-45.7876	52.0648	-49.1921	341.299	-74.0487	86.0023	-57.9746	110.349	-40.8461	44.5872	-18.6096	10.7166	-44.7701	140.631
380282	-32.04	36.4652	-45.6187	52.3289	-49.2537	341.67	-73.7993	86.0693	-57.745	110.163	-40.7111	44.8651	-18.5948	10.98	-44.6439	140.328
380283	-31.9492	36.74	-45.4493	52.5914	-49.3141	342.042	-73.5499	86.1343	-57.5151	109.979	-40.5754	45.1419	-18.5796	11.2433	-44.5169	140.025
380284	-31.8579	37.0142	-45.2792	52.8524	-49.3733	342.415	-73.3005	86.1974	-57.285	109.797	-40.439	45.4176	-18.5641	11.5066	-44.3891	139.724
380285	-31.766	37.2878	-45.1086	53.1118	-49.4312	342.789	-73.0511	86.2588	-57.0546	109.618	-40.302	45.6922	-18.5482	11.7699	-44.2605	139.424
380286	-31.6735	37.5609	-44.9374	53.3696	-49.488	343.164	-72.8016	86.3184	-56.824	109.441	-40.1644	45.9656	-18.5319	12.0331	-44.1311	139.126
380287	-31.5804	37.8335	-44.7656	53.6259	-49.5436	343.539	-72.5521	86.3764	-56.5931	109.266	-40.0261	46.238	-18.5153	12.2962	-44.001	138.829
380288	-31.4868	38.1056	-44.5933	53.8807	-49.598	343.916	-72.3027	86.4327	-56.362	109.093	-39.8872	46.5093	-18.4984	12.5593	-43.8701	138.533
380289	-31.3925	38.377	-44.4203	54.134	-49.6511	344.293	-72.0532	86.4877	-56.1306	108.922	-39.7477	46.7794	-18.481	12.8223	-43.7384	138.238
380290	-31.2978	38.648	-44.2469	54.3858	-49.7031	344.671	-71.8037	86.5411	-55.899	108.754	-39.6075	47.0485	-18.4633	13.0853	-43.6059	137.945
380291	-31.2024	38.9184	-44.0729	54.6362	-49.7537	345.05	-71.5541	86.5932	-55.6672	108.587	-39.4667	47.3165	-18.4453	13.3483	-43.4727	137.653
380292	-31.1065	39.1883	-43.8983	54.885	-49.8032	345.429	-71.3046	86.6439	-55.4351	108.422	-39.3253	47.5834	-18.4269	13.6111	-43.3388	137.363
380293	-31.01	39.4576	-43.7232	55.1324	-49.8514	345.81	-71.055	86.6934	-55.2028	108.26	-39.1833	47.8492	-18.4081	13.874	-43.2041	137.073
380294	-30.913	39.7263	-43.5476	55.3784	-49.8984	346.191	-70.8055	86.7417	-54.9704	108.099	-39.0408	48.114	-18.389	14.1367	-43.0687	136.785
380295	-30.8155	39.9946	-43.3715	55.6229	-49.9441	346.572	-70.5559	86.7887	-54.7377	107.94	-38.8976	48.3776	-18.3695	14.3994	-42.9326	136.498
380296	-30.7173	40.2623	-43.1948	55.8661	-49.9886	346.955	-70.3063	86.8346	-54.5047	107.782	-38.7538	48.6403	-18.3497	14.6621	-42.7957	136.213
380297	-30.6187	40.5294	-43.0177	56.1078	-50.0318	347.338	-70.0567	86.8795	-54.2716	107.627	-38.6095	48.9019	-18.3295	14.9246	-42.6582	135.928
380298	-30.5195	40.796	-42.84	56.3481	-50.0738	347.722	-69.8071	86.9233	-54.0383	107.474	-38.4646	49.1624	-18.3089	15.1872	-42.5199	135.645
380299	-30.4198	41.062	-42.6619	56.5871	-50.1145	348.107	-69.5575	86.966	-53.8048	107.322	-38.3191	49.4219	-18.288	15.4496	-42.3809	135.364
380300	-30.3195	41.3276	-42.4832	56.8247	-50.1539	348.492	-69.3079	87.0078	-53.5711	107.171	-38.173	49.6803	-18.2668	15.712	-42.2413	135.083
380301	-30.2187	41.5925	-42.3041	57.0609	-50.1921	348.878	-69.0582	87.0487	-53.3372	107.023	-38.0264	49.9377	-18.2452	15.9743	-42.101	134.804
380302	-30.1173	41.8569	-42.1245	57.2959	-50.2289	349.264	-68.8086	87.0886	-53.1031	106.876	-37.8792	50.1941	-18.2232	16.2366	-41.96	134.526
380303	-30.0155	42.1208	-41.9444	57.5294	-50.2645	349.651	-68.5589	87.1277	-52.8689	106.731	-37.7315	50.4495	-18.2009	16.4988	-41.8183	134.249
380304	-29.9131	42.3842	-41.7638	57.7617	-50.2988	350.039	-68.3092	87.1659	-52.6345	106.587	-37.5832	50.7038	-18.1782	16.7609	-41.6759	133.974
380305	-29.8102	42.647	-41.5828	57.9927	-50.3319	350.427	-68.0596	87.2033	-52.3999	106.445	-37.4344	50.9572	-18.1552	17.023	-41.5329	133.699
380306	-29.7068	42.9092	-41.4013	58.2224	-50.3636	350.816	-67.8099	87.24	-52.1651	106.304	-37.2851	51.2095	-18.1318	17.285	-41.3893	133.426
380307	-29.6029	43.171	-41.2194	58.4508	-50.3941	351.205	-67.5602	87.2758	-51.9301	106.165	-37.1352	51.4608	-18.1081	17.5469	-41.245	133.154
380308	-29.4985	43.4322	-41.0371	58.6779	-50.4232	351.595	-67.3105	87.3109	-51.695	106.027	-36.9848	51.7112	-18.0841	17.8088	-41.1	132.883
380309	-29.3935	43.6928	-40.8542	58.9038	-50.451	351.985	-67.0608	87.3453	-51.4597	105.89	-36.8339	51.9605	-18.0596	18.0706	-40.9544	132.614
380310	-29.2881	43.9529	-40.671	59.1285	-50.4776	352.376	-66.8111	87.3791	-51.2243	105.755	-36.6825	52.2089	-18.0349	18.3323	-40.8082	132.346
380311	-29.1822	44.2125	-40.4873	59.3519	-50.5028	352.767	-66.5614	87.4121	-50.9888	105.622	-36.5305	52.4563	-18.0098	18.5939	-40.6614	132.078
380312	-29.0757	44.4716	-40.3032	59.5741	-50.5267	353.158	-66.3116	87.4445	-50.753	105.49	-36.3781	52.7028	-17.9843	18.8555	-40.5139	131.813
380313	-28.9688	44.7301	-40.1187	59.7951	-50.5494	353.55	-66.0619	87.4763	-50.5171	105.359	-36.2251	52.9482	-17.9585	19.1169	-40.3659	131.548
380314	-28.8614	44.988	-39.9338	60.0149	-50.5707	353.942	-65.8122	87.5074	-50.2811	105.229	-36.0717	53.1928	-17.9323	19.3783	-40.2172	131.284
380315	-28.7535	45.2455	-39.7484	60.2335	-50.5907	354.335	-65.5624	87.538	-50.0449	105.101	-35.9177	53.4363	-17.9059	19.6397	-40.068	131.022
380316	-28.6452	45.5024	-39.5627	60.451	-50.6093	354.728	-65.3127	87.568	-49.8086	104.974	-35.7633	53.679	-17.879	19.9009	-39.9181	130.76
380317	-28.5363	45.7588	-39.3766	60.6673	-50.6267	355.121	-65.0629	87.5975	-49.5722	104.848	-35.6084	53.9207	-17.8518	20.1621	-39.7677	130.5
380318	-28.427	46.0147	-39.19	60.8824	-50.6427	355.514	-64.8131	87.6264	-49.3356	104.724	-35.453	54.1614	-17.8243	20.4232	-39.6166	130.241
380319	-28.3172	46.27	-39.0031	61.0964	-50.6575	355.908	-64.5634	87.6548	-49.0988	104.6	-35.2972	54.4012	-17.7964	20.6842	-39.465	129.983
380320	-28.2069	46.5248	-38.8158	61.3093	-50.6709	356.302	-64.3136	87.6827	-48.862	104.478	-35.1409	54.6401	-17.7682	20.9451	-39.3129	129.727
380321	-28.0961	46.7791	-38.6281	61.5211	-50.6829	356.696	-64.0638	87.7101	-48.625	104.357	-34.9841	54.8781	-17.7397	21.206	-39.1601	129.471
380322	-27.9849	47.0328	-38.44	61.7318	-50.6937	357.09	-63.8141	87.737	-48.3879	104.237	-34.8268	55.1152	-17.7108	21.4668	-39.0068	129.216
380323	-27.8732	47.2861	-38.2515	61.9414	-50.7031	357.485	-63.5643	87.7635	-48.1506	104.118	-34.6691	55.3514	-17.6816	21.7274	-38.853	128.963
380324	-27.7611	47.5388	-38.0627	62.1499	-50.7112	357.879	-63.3145	87.7895	-47.9133	104.001	-34.511	55.5867	-17.652	21.988	-38.6986	128.711
380325	-27.6486	47.791	-37.8735	62.3573	-50.7179	358.274	-63.0647	87.815	-47.6758	103.884	-34.3524	55.8211	-17.6221	22.2486	-38.5436	128.46
380326	-27.5355	48.0427	-37.684	62.5637	-50.7234	358.669	-62.8149	87.8402	-47.4382	103.769	-34.1934	56.0546	-17.5918	22.509	-38.3882	128.209
380327	-27.422	48.2938	-37.4941	62.769	-50.7275	359.064	-62.5651	87.8649	-47.2005	103.654	-34.0339	56.2873	-17.5612	22.7693	-38.2321	127.96
380328	-27.3081	48.5445	-37.3039	62.9733	-50.7302	359.459	-62.3153	87.8892	-46.9627	103.541	-33.874	56.5191	-17.5303	23.0296	-38.0756	127.712
380329	-27.1938	48.7946	-37.1133	63.1766	-50.7317	359.854	-62.0655	87.9132	-46.7247	103.428	-33.7137	56.75	-17.4991	23.2897	-37.9185	127.466
380330	-27.0789	49.0442	-36.9224	63.3788	-50.7318	0.249081	-61.8156	87.9367	-46.4867	103.317	-33.5529	56.98	-17.4675	23.5498	-37.761	127.22
380331	-26.9637	49.2934	-36.7311	63.58	-50.7306	0.644144	-61.5658	87.9599	-46.2485	103.206	-33.3917	57.2092	-17.4356	23.8098	-37.6029	126.975
380332	-26.848	49.542	-36.5395	63.7803	-50.728	1.03917	-61.316	87.9827	-46.0102	103.097	-33.2301	57.4376	-17.4033	24.0697	-37.4442	126.731
380333	-26.7319	49.7901	-36.3475	63.9795	-50.7241	1.43415	-61.0662	88.0052	-45.7719	102.988	-33.0681	57.6651	-17.3707	24.3295	-37.2852	126.488
380334	-26.6154	50.0377	-36.1553	64.1778	-50.7189	1.82905	-60.8163	88.0273	-45.5334	102.881	-32.9057	57.8918	-17.3378	24.5892	-37.1255	126.247
380335	-26.4984	50.2848	-35.9627	64.3751	-50.7124	2.22385	-60.5665	88.0491	-45.2948	102.774	-32.7429	58.1176	-17.3045	24.8488	-36.9655	126.006
380336	-26.3811	50.5314	-35.7698	64.5715	-50.7045	2.61854	-60.3167	88.0706	-45.0561	102.668	-32.5797	58.3426	-17.271	25.1083	-36.8049	125.766
380337	-26.2633	50.7775	-35.5766	64.7669	-50.6953	3.01307	-60.0668	88.0918	-44.8174	102.563	-32.4161	58.5669	-17.2371	25.3677	-36.6438	125.528
380338	-26.1451	51.0231	-35.3831	64.9614	-50.6847	3.40744	-59.817	88.1126	-44.5785	102.459	-32.2521	58.7903	-17.2028	25.6271	-36.4823	125.29
380339	-26.0265	51.2682	-35.1893	65.1549	-50.6729	3.80163	-59.5671	88.1331	-44.3395	102.356	-32.0877	59.0129	-17.1683	25.8863	-36.3203	125.053
380340	-25.9074	51.5128	-34.9951	65.3475	-50.6597	4.1956	-59.3173	88.1534	-44.1005	102.254	-31.9229	59.2347	-17.1334	26.1454	-36.1578	124.818
380341	-25.788	51.7569	-34.8007	65.5393	-50.6452	4.58934	-59.0674	88.1733	-43.8613	102.152	-31.7577	59.4557	-17.0982	26.4045	-35.9948	124.583
380342	-25.6682	52.0005	-34.6059	65.7301	-50.6294	4.98283	-58.8176	88.193	-43.6221	102.052	-31.5922	59.6759	-17.0626	26.6634	-35.8314	124.349
380343	-25.548	52.2437	-34.4109	65.92	-50.6122	5.37604	-58.5677	88.2125	-43.3827	101.952	-31.4263	59.8954	-17.0268	26.9223	-35.6676	124.117
380344	-25.4273	52.4864	-34.2156	66.1091	-50.5938	5.76896	-58.3179	88.2316	-43.1433	101.853	-31.26	60.1141	-16.9906	27.181	-35.5033	123.885
380345	-25.3063	52.7285	-34.02	66.2973	-50.574	6.16155	-58.068	88.2505	-42.9038	101.754	-31.0934	60.332	-16.9541	27.4397	-35.3385	123.654
380346	-25.1849	52.9702	-33.8241	66.4846	-50.5529	6.55381	-57.8181	88.2691	-42.6642	101.657	-30.9264	60.5491	-16.9172	27.6982	-35.1733	123.424
380347	-25.0631	53.2114	-33.628	66.671	-50.5305	6.94571	-57.5683	88.2875	-42.4245	101.56	-30.759	60.7655	-16.8801	27.9567	-35.0077	123.195
380348	-24.9409	53.4522	-33.4315	66.8567	-50.5068	7.33722	-57.3184	88.3056	-42.1848	101.464	-30.5913	60.9812	-16.8426	28.215	-34.8416	122.967
380349	-24.8183	53.6924	-33.2348	67.0415	-50.4817	7.72833	-57.0685	88.3235	-41.9449	101.368	-30.4232	61.1961	-16.8048	28.4733	-34.6752	122.74
380350	-24.6954	53.9322	-33.0379	67.2254	-50.4554	8.11901	-56.8186	88.3412	-41.705	101.274	-30.2548	61.4103	-16.7667	28.7314	-34.5082	122.514
380351	-24.5721	54.1715	-32.8406	67.4086	-50.4278	8.50925	-56.5688	88.3586	-41.465	101.18	-30.0861	61.6237	-16.7283	28.9894	-34.3409	122.288
380352	-24.4484	54.4104	-32.6431	67.5909	-50.3988	8.89903	-56.3189	88.3759	-41.2249	101.087	-29.917	61.8364	-16.6896	29.2474	-34.1732	122.064
380353	-24.3243	54.6488	-32.4453	67.7725	-50.3686	9.28832	-56.069	88.3929	-40.9848	100.994	-29.7475	62.0485	-16.6505	29.5052	-34.005	121.841
380354	-24.1999	54.8867	-32.2473	67.9532	-50.3371	9.6771	-55.8191	88.4097	-40.7446	100.903	-29.5778	62.2597	-16.6112	29.7629	-33.8364	121.618
380355	-24.0751	55.1241	-32.0491	68.1332	-50.3043	10.0654	-55.5692	88.4263	-40.5043	100.811	-29.4077	62.4703	-16.5715	30.0205	-33.6675	121.396
380356	-23.9499	55.3611	-31.8505	68.3124	-50.2702	10.4531	-55.3194	88.4427	-40.2639	100.721	-29.2372	62.6802	-16.5315	30.2781	-33.4981	121.175
380357	-23.8244	55.5977	-31.6518	68.4908	-50.2348	10.8402	-55.0695	88.4588	-40.0234	100.631	-29.0665	62.8894	-16.4912	30.5355	-33.3284	120.956
380358	-23.6985	55.8338	-31.4528	68.6685	-50.1981	11.2268	-54.8196	88.4749	-39.7829	100.542	-28.8954	63.0979	-16.4506	30.7928	-33.1582	120.736
380359	-23.5723	56.0694	-31.2535	68.8454	-50.1602	11.6128	-54.5697	88.4907	-39.5423	100.453	-28.724	63.3057	-16.4097	31.0499	-32.9877	120.518
380360	-23.4457	56.3046	-31.054	69.0216	-50.1209	11.9981	-54.3198	88.5063	-39.3017	100.365	-28.5524	63.5129	-16.3684	31.307	-32.8168	120.301
380361	-23.3188	56.5393	-30.8543	69.1971	-50.0804	12.3828	-54.0699	88.5217	-39.061	100.278	-28.3803	63.7193	-16.3269	31.564	-32.6455	120.084
380362	-23.1915	56.7736	-30.6543	69.3718	-50.0387	12.7668	-53.82	88.537	-38.8202	100.191	-28.208	63.9251	-16.285	31.8209	-32.4738	119.868
380363	-23.0639	57.0074	-30.4541	69.5458	-49.9957	13.1502	-53.5701	88.5521	-38.5793	100.105	-28.0354	64.1303	-16.2429	32.0776	-32.3018	119.653
380364	-22.936	57.2408	-30.2537	69.7191	-49.9514	13.5329	-53.3202	88.567	-38.3384	100.019	-27.8625	64.3348	-16.2005	32.3343	-32.1294	119.439
380365	-22.8077	57.4738	-30.0531	69.8917	-49.9059	13.9148	-53.0703	88.5818	-38.0975	99.9343	-27.6893	64.5386	-16.1577	32.5908	-31.9566	119.226
380366	-22.6791	57.7063	-29.8522	70.0636	-49.8591	14.2961	-52.8204	88.5964	-37.8564	99.8499	-27.5158	64.7418	-16.1146	32.8473	-31.7835	119.014
380367	-22.5501	57.9384	-29.6511	70.2348	-49.8111	14.6766	-52.5705	88.6108	-37.6153	99.766	-27.342	64.9444	-16.0713	33.1036	-31.6101	118.802
380368	-22.4209	58.1701	-29.4498	70.4053	-49.7619	15.0563	-52.3205	88.6251	-37.3742	99.6826	-27.1679	65.1463	-16.0276	33.3598	-31.4362	118.591
380369	-22.2913	58.4013	-29.2483	70.5752	-49.7114	15.4352	-52.0706	88.6392	-37.133	99.5998	-26.9935	65.3476	-15.9837	33.6159	-31.262	118.381
380370	-22.1613	58.6321	-29.0466	70.7444	-49.6597	15.8134	-51.8207	88.6532	-36.8917	99.5175	-26.8189	65.5483	-15.9394	33.8719	-31.0875	118.172
380371	-22.0311	58.8625	-28.8446	70.9129	-49.6067	16.1907	-51.5708	88.667	-36.6503	99.4358	-26.644	65.7484	-15.8948	34.1277	-30.9127	117.963
380372	-21.9005	59.0925	-28.6425	71.0808	-49.5526	16.5672	-51.3209	88.6807	-36.4089	99.3546	-26.4688	65.9479	-15.85	34.3835	-30.7375	117.755
380373	-21.7696	59.322	-28.4402	71.2481	-49.4972	16.9429	-51.071	88.6943	-36.1675	99.2738	-26.2933	66.1467	-15.8048	34.6391	-30.5619	117.548
380374	-21.6385	59.5511	-28.2376	71.4147	-49.4406	17.3177	-50.8211	88.7077	-35.926	99.1936	-26.1175	66.345	-15.7594	34.8947	-30.3861	117.342
380375	-21.507	59.7799	-28.0349	71.5807	-49.3828	17.6916	-50.5711	88.7209	-35.6844	99.1139	-25.9415	66.5426	-15.7136	35.1501	-30.2099	117.136
380376	-21.3752	60.0082	-27.8319	71.7461	-49.3238	18.0647	-50.3212	88.7341	-35.4428	99.0347	-25.7653	66.7397	-15.6676	35.4054	-30.0334	116.932
380377	-21.2431	60.2361	-27.6288	71.9109	-49.2636	18.4368	-50.0713	88.7471	-35.2012	98.9559	-25.5887	66.9363	-15.6213	35.6606	-29.8566	116.728
380378	-21.1106	60.4635	-27.4255	72.075	-49.2023	18.8081	-49.8214	88.76	-34.9595	98.8776	-25.4119	67.1322	-15.5747	35.9156	-29.6794	116.524
380379	-20.9779	60.6906	-27.222	72.2386	-49.1397	19.1784	-49.5714	88.7727	-34.7177	98.7998	-25.2349	67.3275	-15.5278	36.1706	-29.502	116.322
380380	-20.8449	60.9173	-27.0183	72.4016	-49.076	19.5478	-49.3215	88.7854	-34.4759	98.7224	-25.0576	67.5223	-15.4806	36.4254	-29.3242	116.12
380381	-20.7116	61.1436	-26.8144	72.5639	-49.0111	19.9162	-49.0716	88.7979	-34.234	98.6455	-24.88	67.7166	-15.4331	36.6802	-29.1461	115.919
380382	-20.578	61.3695	-26.6104	72.7257	-48.945	20.2836	-48.8217	88.8103	-33.9921	98.5691	-24.7022	67.9103	-15.3854	36.9348	-28.9678	115.718
380383	-20.4442	61.595	-26.4061	72.887	-48.8778	20.6501	-48.5717	88.8226	-33.7501	98.493	-24.5242	68.1034	-15.3373	37.1893	-28.7891	115.518
380384	-20.31	61.8201	-26.2017	73.0476	-48.8094	21.0156	-48.3218	88.8347	-33.5081	98.4175	-24.3459	68.296	-15.289	37.4436	-28.6101	115.319
380385	-20.1756	62.0448	-25.9971	73.2077	-48.7399	21.3801	-48.0719	88.8468	-33.2661	98.3423	-24.1673	68.488	-15.2404	37.6979	-28.4308	115.121
380386	-20.0408	62.2692	-25.7923	73.3673	-48.6692	21.7435	-47.8219	88.8587	-33.0239	98.2676	-23.9886	68.6795	-15.1915	37.952	-28.2513	114.923
380387	-19.9058	62.4931	-25.5874	73.5263	-48.5974	22.106	-47.572	88.8706	-32.7818	98.1932	-23.8096	68.8705	-15.1423	38.2061	-28.0714	114.726
380388	-19.7705	62.7167	-25.3823	73.6847	-48.5244	22.4674	-47.3221	88.8823	-32.5396	98.1193	-23.6304	69.061	-15.0929	38.46	-27.8913	114.53
380389	-19.635	62.9399	-25.177	73.8427	-48.4504	22.8278	-47.0721	88.8939	-32.2974	98.0458	-23.4509	69.251	-15.0432	38.7138	-27.7109	114.334
380390	-19.4992	63.1627	-24.9716	74.0001	-48.3752	23.1871	-46.8222	88.9055	-32.0551	97.9727	-23.2712	69.4404	-14.9931	38.9675	-27.5302	114.139
380391	-19.3631	63.3852	-24.766	74.157	-48.2989	23.5453	-46.5723	88.9169	-31.8128	97.9	-23.0913	69.6293	-14.9429	39.221	-27.3493	113.944
380392	-19.2267	63.6073	-24.5602	74.3134	-48.2215	23.9025	-46.3223	88.9282	-31.5704	97.8277	-22.9112	69.8178	-14.8923	39.4744	-27.1681	113.751
380393	-19.0901	63.829	-24.3543	74.4692	-48.143	24.2585	-46.0724	88.9394	-31.328	97.7557	-22.7309	70.0057	-14.8415	39.7278	-26.9866	113.557
380394	-18.9532	64.0503	-24.1483	74.6246	-48.0634	24.6135	-45.8224	88.9506	-31.0855	97.6841	-22.5503	70.1932	-14.7904	39.981	-26.8048	113.365
380395	-18.8161	64.2713	-23.942	74.7795	-47.9827	24.9674	-45.5725	88.9616	-30.843	97.6129	-22.3695	70.3801	-14.739	40.2341	-26.6227	113.173
380396	-18.6787	64.492	-23.7357	74.9338	-47.901	25.3202	-45.3225	88.9726	-30.6005	97.5421	-22.1885	70.5666	-14.6874	40.487	-26.4405	112.981
380397	-18.541	64.7123	-23.5292	75.0877	-47.8182	25.6718	-45.0726	88.9835	-30.3579	97.4716	-22.0073	70.7526	-14.6354	40.7399	-26.2579	112.791
380398	-18.4031	64.9322	-23.3225	75.2412	-47.7343	26.0224	-44.8227	88.9942	-30.1153	97.4015	-21.8259	70.9381	-14.5832	40.9926	-26.0751	112.601
380399	-18.265	65.1518	-23.1157	75.3941	-47.6493	26.3718	-44.5727	89.0049	-29.8727	97.3317	-21.6443	71.1232	-14.5308	41.2452	-25.8921	112.411
380400	-18.1266	65.371	-22.9087	75.5466	-47.5633	26.7201	-44.3228	89.0155	-29.63	97.2622	-21.4626	71.3078	-14.4781	41.4977	-25.7088	112.222
380401	-17.988	65.5899	-22.7016	75.6986	-47.4762	27.0672	-44.0728	89.0261	-29.3873	97.1932	-21.2806	71.4919	-14.4251	41.7501	-25.5252	112.034
380402	-17.8491	65.8085	-22.4943	75.8502	-47.3881	27.4131	-43.8229	89.0365	-29.1445	97.1244	-21.0984	71.6756	-14.3719	42.0023	-25.3414	111.846
380403	-17.71	66.0267	-22.287	76.0013	-47.299	27.7579	-43.5729	89.0469	-28.9017	97.056	-20.916	71.8589	-14.3184	42.2544	-25.1574	111.659
380404	-17.5706	66.2446	-22.0794	76.1519	-47.2089	28.1016	-43.323	89.0571	-28.6589	96.9878	-20.7334	72.0417	-14.2646	42.5065	-24.9731	111.472
380405	-17.431	66.4621	-21.8718	76.3022	-47.1177	28.444	-43.073	89.0674	-28.416	96.9201	-20.5506	72.2241	-14.2106	42.7584	-24.7886	111.286
380406	-17.2912	66.6793	-21.664	76.452	-47.0255	28.7853	-42.8231	89.0775	-28.1731	96.8526	-20.3677	72.406	-14.1563	43.0101	-24.6039	111.101
380407	-17.1512	66.8962	-21.4561	76.6014	-46.9323	29.1254	-42.5731	89.0875	-27.9302	96.7854	-20.1845	72.5875	-14.1017	43.2618	-24.4189	110.916
380408	-17.0109	67.1128	-21.248	76.7503	-46.8381	29.4644	-42.3232	89.0975	-27.6872	96.7186	-20.0012	72.7686	-14.0469	43.5133	-24.2337	110.731
380409	-16.8704	67.329	-21.0399	76.8988	-46.7429	29.8021	-42.0732	89.1074	-27.4442	96.652	-19.8177	72.9493	-13.9919	43.7647	-24.0483	110.547
380410	-16.7297	67.5449	-20.8316	77.047	-46.6467	30.1386	-41.8233	89.1173	-27.2012	96.5858	-19.634	73.1295	-13.9366	44.016	-23.8626	110.364
380411	-16.5887	67.7605	-20.6231	77.1947	-46.5496	30.474	-41.5733	89.127	-26.9581	96.5198	-19.4502	73.3094	-13.881	44.2672	-23.6768	110.181
380412	-16.4476	67.9758	-20.4146	77.342	-46.4515	30.8081	-41.3233	89.1367	-26.715	96.4542	-19.2661	73.4888	-13.8252	44.5182	-23.4907	109.999
380413	-16.3062	68.1908	-20.2059	77.489	-46.3524	31.141	-41.0734	89.1463	-26.4719	96.3888	-19.0819	73.6679	-13.7691	44.7692	-23.3044	109.817
380414	-16.1646	68.4055	-19.9971	77.6355	-46.2523	31.4728	-40.8234	89.1559	-26.2287	96.3237	-18.8976	73.8465	-13.7128	45.02	-23.1179	109.636
380415	-16.0228	68.6199	-19.7882	77.7817	-46.1513	31.8033	-40.5735	89.1654	-25.9855	96.2589	-18.713	74.0248	-13.6563	45.2707	-22.9312	109.455
380416	-15.8808	68.834	-19.5792	77.9274	-46.0494	32.1326	-40.3235	89.1749	-25.7423	96.1943	-18.5283	74.2027	-13.5994	45.5213	-22.7443	109.275
380417	-15.7386	69.0477	-19.3701	78.0729	-45.9465	32.4607	-40.0736	89.1842	-25.4991	96.13	-18.3435	74.3802	-13.5424	45.7717	-22.5571	109.096
380418	-15.5962	69.2612	-19.1608	78.2179	-45.8427	32.7876	-39.8236	89.1935	-25.2558	96.066	-18.1584	74.5573	-13.4851	46.0221	-22.3698	108.916
380419	-15.4536	69.4744	-18.9515	78.3626	-45.7379	33.1132	-39.5737	89.2028	-25.0125	96.0023	-17.9733	74.7341	-13.4276	46.2723	-22.1823	108.737
380420	-15.3108	69.6873	-18.742	78.5069	-45.6323	33.4376	-39.3237	89.212	-24.7691	95.9388	-17.7879	74.9105	-13.3698	46.5224	-21.9946	108.559
380421	-15.1678	69.8999	-18.5324	78.6509	-45.5257	33.7608	-39.0737	89.2211	-24.5258	95.8755	-17.6024	75.0865	-13.3117	46.7724	-21.8066	108.381
380422	-15.0246	70.1122	-18.3227	78.7945	-45.4182	34.0828	-38.8238	89.2302	-24.2824	95.8125	-17.4168	75.2622	-13.2535	47.0222	-21.6185	108.204
380423	-14.8812	70.3243	-18.113	78.9377	-45.3098	34.4035	-38.5738	89.2392	-24.039	95.7498	-17.231	75.4375	-13.195	47.272	-21.4302	108.027
380424	-14.7376	70.536	-17.9031	79.0807	-45.2006	34.7231	-38.3238	89.2481	-23.7955	95.6873	-17.045	75.6124	-13.1362	47.5216	-21.2417	107.851
380425	-14.5938	70.7475	-17.6931	79.2233	-45.0904	35.0414	-38.0739	89.257	-23.552	95.625	-16.859	75.7871	-13.0772	47.7711	-21.053	107.675
380426	-14.4498	70.9587	-17.483	79.3655	-44.9794	35.3584	-37.8239	89.2659	-23.3085	95.563	-16.6727	75.9614	-13.018	48.0205	-20.8641	107.499
380427	-14.3057	71.1697	-17.2728	79.5075	-44.8675	35.6743	-37.574	89.2747	-23.065	95.5012	-16.4864	76.1353	-12.9586	48.2698	-20.6751	107.324
380428	-14.1614	71.3803	-17.0625	79.6491	-44.7548	35.9889	-37.324	89.2834	-22.8215	95.4396	-16.2998	76.3089	-12.8989	48.5189	-20.4859	107.15
380429	-14.0169	71.5907	-16.8522	79.7905	-44.6412	36.3023	-37.074	89.2921	-22.5779	95.3783	-16.1132	76.4822	-12.839	48.7679	-20.2965	106.975
380430	-13.8722	71.8009	-16.6417	79.9315	-44.5267	36.6144	-36.8241	89.3007	-22.3343	95.3172	-15.9264	76.6552	-12.7789	49.0169	-20.1069	106.802
380431	-13.7273	72.0108	-16.4311	80.0722	-44.4114	36.9254	-36.5741	89.3093	-22.0907	95.2563	-15.7395	76.8278	-12.7185	49.2657	-19.9171	106.628
380432	-13.5823	72.2204	-16.2205	80.2126	-44.2953	37.2351	-36.3241	89.3179	-21.847	95.1956	-15.5524	77.0002	-12.6579	49.5144	-19.7272	106.456
380433	-13.4371	72.4298	-16.0097	80.3527	-44.1783	37.5436	-36.0742	89.3264	-21.6034	95.1351	-15.3652	77.1722	-12.5971	49.7629	-19.5371	106.283
380434	-13.2917	72.6389	-15.7989	80.4925	-44.0605	37.8508	-35.8242	89.3348	-21.3597	95.0749	-15.1779	77.344	-12.5361	50.0114	-19.3468	106.111
380435	-13.1462	72.8478	-15.588	80.632	-43.9419	38.1569	-35.5742	89.3432	-21.116	95.0148	-14.9905	77.5154	-12.4748	50.2597	-19.1564	105.939
380436	-13.0005	73.0564	-15.377	80.7713	-43.8225	38.4617	-35.3242	89.3516	-20.8722	94.9549	-14.8029	77.6865	-12.4133	50.5079	-18.9658	105.768
380437	-12.8546	73.2648	-15.1659	80.9103	-43.7022	38.7653	-35.0743	89.3599	-20.6285	94.8953	-14.6153	77.8573	-12.3516	50.756	-18.7751	105.597
380438	-12.7086	73.473	-14.9547	81.049	-43.5812	39.0677	-34.8243	89.3681	-20.3847	94.8358	-14.4275	78.0279	-12.2897	51.004	-18.5842	105.427
380439	-12.5624	73.6809	-14.7435	81.1874	-43.4594	39.3688	-34.5744	89.3763	-20.1409	94.7766	-14.2395	78.1982	-12.2275	51.2518	-18.3931	105.257
380440	-12.4161	73.8886	-14.5321	81.3256	-43.3368	39.6688	-34.3244	89.3845	-19.8971	94.7175	-14.0515	78.3682	-12.1652	51.4996	-18.2019	105.087
380441	-12.2696	74.096	-14.3208	81.4634	-43.2135	39.9675	-34.0744	89.3926	-19.6532	94.6586	-13.8633	78.5379	-12.1026	51.7472	-18.0105	104.918
380442	-12.123	74.3033	-14.1093	81.6011	-43.0893	40.2651	-33.8244	89.4007	-19.4093	94.5999	-13.6751	78.7073	-12.0398	51.9948	-17.819	104.749
380443	-11.9762	74.5103	-13.8977	81.7385	-42.9644	40.5614	-33.5745	89.4088	-19.1655	94.5414	-13.4867	78.8765	-11.9768	52.2422	-17.6273	104.58
380444	-11.8292	74.7171	-13.6861	81.8757	-42.8387	40.8566	-33.3245	89.4168	-18.9216	94.483	-13.2982	79.0454	-11.9136	52.4895	-17.4355	104.412
380445	-11.6822	74.9236	-13.4744	82.0126	-42.7123	41.1505	-33.0745	89.4248	-18.6776	94.4249	-13.1096	79.2141	-11.8501	52.7366	-17.2435	104.244
380446	-11.5349	75.13	-13.2626	82.1493	-42.5852	41.4432	-32.8246	89.4327	-18.4337	94.3669	-12.9209	79.3825	-11.7865	52.9837	-17.0514	104.076
380447	-11.3876	75.3361	-13.0508	82.2857	-42.4573	41.7348	-32.5746	89.4406	-18.1897	94.309	-12.7321	79.5506	-11.7226	53.2306	-16.8592	103.909
380448	-11.2401	75.542	-12.8389	82.4219	-42.3287	42.0251	-32.3246	89.4484	-17.9458	94.2514	-12.5432	79.7185	-11.6586	53.4775	-16.6668	103.742
380449	-11.0924	75.7477	-12.6269	82.5579	-42.1993	42.3143	-32.0746	89.4562	-17.7018	94.1939	-12.3542	79.8862	-11.5943	53.7242	-16.4743	103.576
380450	-10.9446	75.9532	-12.4148	82.6937	-42.0692	42.6023	-31.8247	89.464	-17.4578	94.1366	-12.1651	80.0536	-11.5298	53.9708	-16.2816	103.409
380451	-10.7967	76.1586	-12.2027	82.8292	-41.9384	42.8891	-31.5747	89.4718	-17.2137	94.0794	-11.9758	80.2208	-11.4652	54.2173	-16.0889	103.244
380452	-10.6487	76.3637	-11.9905	82.9646	-41.807	43.1748	-31.3247	89.4795	-16.9697	94.0224	-11.7865	80.3878	-11.4003	54.4637	-15.8959	103.078
380453	-10.5005	76.5686	-11.7783	83.0997	-41.6748	43.4593	-31.0747	89.4871	-16.7256	93.9655	-11.5971	80.5545	-11.3352	54.71	-15.7029	102.913
380454	-10.3522	76.7733	-11.566	83.2346	-41.5419	43.7426	-30.8248	89.4948	-16.4815	93.9088	-11.4077	80.721	-11.27	54.9562	-15.5097	102.748
380455	-10.2038	76.9778	-11.3537	83.3694	-41.4083	44.0247	-30.5748	89.5024	-16.2374	93.8522	-11.2181	80.8873	-11.2045	55.2022	-15.3164	102.584
380456	-10.0553	77.1822	-11.1412	83.5039	-41.274	44.3057	-30.3248	89.5099	-15.9933	93.7958	-11.0284	81.0534	-11.1388	55.4482	-15.123	102.419
380457	-9.90659	77.3863	-10.9288	83.6382	-41.1391	44.5855	-30.0748	89.5175	-15.7492	93.7395	-10.8387	81.2193	-11.073	55.694	-14.9295	102.255
380458	-9.75781	77.5903	-10.7163	83.7724	-41.0035	44.8642	-29.8249	89.525	-15.505	93.6834	-10.6488	81.385	-11.0069	55.9397	-14.7358	102.092
380459	-9.60891	77.7941	-10.5037	83.9064	-40.8672	45.1418	-29.5749	89.5325	-15.2609	93.6274	-10.4589	81.5504	-10.9407	56.1853	-14.542	101.928
380460	-9.4599	77.9977	-10.291	84.0402	-40.7303	45.4182	-29.3249	89.5399	-15.0167	93.5715	-10.2689	81.7157	-10.8742	56.4308	-14.3481	101.765
380461	-9.31077	78.2012	-10.0784	84.1738	-40.5927	45.6934	-29.0749	89.5473	-14.7725	93.5158	-10.0788	81.8808	-10.8076	56.6763	-14.1541	101.603
380462	-9.16153	78.4045	-9.86561	84.3072	-40.4545	45.9676	-28.825	89.5547	-14.5283	93.4602	-9.88865	82.0456	-10.7408	56.9216	-13.96	101.44
380463	-9.01218	78.6076	-9.65283	84.4405	-40.3156	46.2406	-28.575	89.562	-14.2841	93.4047	-9.69841	82.2103	-10.6738	57.1667	-13.7658	101.278
380464	-8.86272	78.8105	-9.43999	84.5736	-40.1761	46.5125	-28.325	89.5694	-14.0398	93.3494	-9.5081	82.3748	-10.6066	57.4118	-13.5714	101.116
380465	-8.71317	79.0133	-9.22711	84.7066	-40.036	46.7833	-28.075	89.5767	-13.7956	93.2942	-9.31771	82.5392	-10.5392	57.6568	-13.377	100.954
380466	-8.5635	79.2159	-9.01419	84.8394	-39.8952	47.0529	-27.825	89.5839	-13.5513	93.2391	-9.12725	82.7033	-10.4717	57.9016	-13.1824	100.793
380467	-8.41374	79.4184	-8.80122	84.972	-39.7538	47.3215	-27.5751	89.5912	-13.3071	93.1841	-8.93672	82.8673	-10.4039	58.1464	-12.9877	100.632
380468	-8.26388	79.6207	-8.5882	85.1045	-39.6118	47.5889	-27.3251	89.5984	-13.0628	93.1292	-8.74613	83.0311	-10.336	58.3911	-12.793	100.471
380469	-8.11392	79.8229	-8.37514	85.2369	-39.4692	47.8553	-27.0751	89.6056	-12.8185	93.0745	-8.55547	83.1948	-10.2679	58.6356	-12.5981	100.31
380470	-7.96386	80.0249	-8.16205	85.3691	-39.3261	48.1206	-26.8251	89.6127	-12.5741	93.0198	-8.36474	83.3583	-10.1997	58.8801	-12.4032	100.15
380471	-7.81371	80.2268	-7.94891	85.5012	-39.1823	48.3848	-26.5751	89.6199	-12.3298	92.9653	-8.17395	83.5216	-10.1312	59.1244	-12.2081	99.9896
380472	-7.66347	80.4285	-7.73573	85.6331	-39.0379	48.6479	-26.3252	89.627	-12.0855	92.9109	-7.98309	83.6848	-10.0626	59.3687	-12.0129	99.8297
380473	-7.51314	80.6301	-7.52252	85.7649	-38.8929	48.91	-26.0752	89.6341	-11.8411	92.8566	-7.79218	83.8479	-9.99376	59.6128	-11.8177	99.6701
380474	-7.36273	80.8316	-7.30927	85.8966	-38.7473	49.171	-25.8252	89.6411	-11.5968	92.8024	-7.60121	84.0108	-9.92478	59.8568	-11.6223	99.5106
380475	-7.21222	81.0329	-7.09598	86.0282	-38.6012	49.4309	-25.5752	89.6482	-11.3524	92.7482	-7.41018	84.1735	-9.85563	60.1008	-11.4269	99.3514
380476	-7.06164	81.2341	-6.88266	86.1597	-38.4545	49.6897	-25.3252	89.6552	-11.108	92.6942	-7.21909	84.3361	-9.78631	60.3446	-11.2314	99.1924
380477	-6.91097	81.4351	-6.66931	86.291	-38.3073	49.9476	-25.0753	89.6622	-10.8636	92.6403	-7.02795	84.4986	-9.71683	60.5883	-11.0358	99.0337
380478	-6.76022	81.6361	-6.45592	86.4222	-38.1595	50.2043	-24.8253	89.6691	-10.6192	92.5865	-6.83676	84.661	-9.64717	60.832	-10.8401	98.8751
380479	-6.6094	81.8369	-6.24251	86.5534	-38.0111	50.4601	-24.5753	89.6761	-10.3748	92.5327	-6.64552	84.8232	-9.57735	61.0755	-10.6443	98.7168
380480	-6.45849	82.0376	-6.02907	86.6844	-37.8622	50.7148	-24.3253	89.683	-10.1304	92.4791	-6.45423	84.9853	-9.50737	61.3189	-10.4484	98.5587
380481	-6.30752	82.2382	-5.81559	86.8153	-37.7127	50.9685	-24.0753	89.6899	-9.88595	92.4255	-6.26289	85.1473	-9.43722	61.5623	-10.2525	98.4008
380482	-6.15647	82.4387	-5.60209	86.9461	-37.5627	51.2211	-23.8254	89.6968	-9.64151	92.3721	-6.07151	85.3092	-9.3669	61.8055	-10.0564	98.243
380483	-6.00535	82.639	-5.38856	87.0769	-37.4122	51.4728	-23.5754	89.7036	-9.39706	92.3187	-5.88008	85.471	-9.29643	62.0487	-9.86033	98.0855
380484	-5.85417	82.8393	-5.17501	87.2075	-37.2611	51.7234	-23.3254	89.7105	-9.15259	92.2653	-5.6886	85.6326	-9.2258	62.2917	-9.66415	97.9282
380485	-5.70291	83.0394	-4.96144	87.3381	-37.1096	51.9731	-23.0754	89.7173	-8.90812	92.2121	-5.49709	85.7942	-9.15501	62.5347	-9.4679	97.771
380486	-5.5516	83.2395	-4.74784	87.4686	-36.9575	52.2217	-22.8254	89.7241	-8.66364	92.159	-5.30554	85.9556	-9.08407	62.7775	-9.27157	97.614
380487	-5.40022	83.4394	-4.53422	87.599	-36.8049	52.4694	-22.5755	89.7309	-8.41915	92.1059	-5.11395	86.117	-9.01296	63.0203	-9.07517	97.4573
380488	-5.24877	83.6393	-4.32058	87.7294	-36.6517	52.716	-22.3255	89.7376	-8.17466	92.0529	-4.92232	86.2783	-8.94171	63.2629	-8.8787	97.3007
380489	-5.09727	83.839	-4.10692	87.8596	-36.4981	52.9617	-22.0755	89.7444	-7.93015	91.9999	-4.73066	86.4394	-8.8703	63.5055	-8.68216	97.1442
380490	-4.94572	84.0387	-3.89325	87.9898	-36.344	53.2064	-21.8255	89.7511	-7.68564	91.9471	-4.53896	86.6005	-8.79874	63.748	-8.48555	96.9879
380491	-4.7941	84.2383	-3.67955	88.12	-36.1894	53.4502	-21.5755	89.7578	-7.44112	91.8943	-4.34723	86.7616	-8.72703	63.9904	-8.28888	96.8318
380492	-4.64244	84.4377	-3.46584	88.2501	-36.0343	53.693	-21.3255	89.7645	-7.19659	91.8415	-4.15547	86.9225	-8.65517	64.2327	-8.09214	96.6759
380493	-4.49072	84.6372	-3.25212	88.3801	-35.8787	53.9349	-21.0755	89.7712	-6.95206	91.7888	-3.96368	87.0834	-8.58316	64.4749	-7.89534	96.5201
380494	-4.33895	84.8365	-3.03838	88.5101	-35.7227	54.1758	-20.8256	89.7778	-6.70751	91.7362	-3.77187	87.2442	-8.51101	64.717	-7.69848	96.3645
380495	-4.18714	85.0357	-2.82463	88.6401	-35.5661	54.4157	-20.5756	89.7845	-6.46296	91.6837	-3.58002	87.4049	-8.43871	64.959	-7.50157	96.209
380496	-4.03528	85.2349	-2.61086	88.7699	-35.4091	54.6547	-20.3256	89.7911	-6.21841	91.6312	-3.38816	87.5656	-8.36627	65.201	-7.30459	96.0536
380497	-3.88337	85.434	-2.39709	88.8998	-35.2516	54.8929	-20.0756	89.7977	-5.97385	91.5787	-3.19627	87.7262	-8.29369	65.4428	-7.10756	95.8984
380498	-3.73142	85.6331	-2.18331	89.0296	-35.0937	55.13	-19.8256	89.8043	-5.72928	91.5263	-3.00436	87.8867	-8.22096	65.6846	-6.91047	95.7434
380499	-3.57943	85.832	-1.96951	89.1594	-34.9353	55.3663	-19.5756	89.8109	-5.48471	91.474	-2.81243	88.0472	-8.1481	65.9262	-6.71333	95.5884
380500	-3.42741	86.031	-1.75572	89.2892	-34.7765	55.6016	-19.3257	89.8174	-5.24013	91.4217	-2.62048	88.2076	-8.0751	66.1678	-6.51613	95.4337
380501	-3.27534	86.2298	-1.54191	89.4189	-34.6172	55.8361	-19.0757	89.824	-4.99554	91.3694	-2.42851	88.368	-8.00196	66.4093	-6.31889	95.279
380502	-3.12325	86.4286	-1.3281	89.5486	-34.4575	56.0697	-18.8257	89.8305	-4.75095	91.3172	-2.23653	88.5284	-7.92869	66.6507	-6.1216	95.1244
380503	-2.97111	86.6273	-1.11429	89.6783	-34.2973	56.3023	-18.5757	89.837	-4.50636	91.2651	-2.04454	88.6887	-7.85528	66.892	-5.92425	94.97
380504	-2.81895	86.826	-0.900475	89.808	-34.1367	56.5341	-18.3257	89.8435	-4.26176	91.213	-1.85253	88.849	-7.78174	67.1333	-5.72687	94.8157
380505	-2.66676	87.0247	-0.686658	89.9377	-33.9756	56.765	-18.0757	89.85	-4.01715	91.1609	-1.66051	89.0093	-7.70807	67.3745	-5.52944	94.6615
380506	-2.51454	87.2233	-0.47284	90.0674	-33.8142	56.9951	-17.8258	89.8565	-3.77254	91.1088	-1.46848	89.1695	-7.63427	67.6155	-5.33196	94.5074
380507	-2.3623	87.4218	-0.259023	90.197	-33.6523	57.2242	-17.5758	89.863	-3.52793	91.0568	-1.27645	89.3297	-7.56034	67.8565	-5.13444	94.3534
380508	-2.21003	87.6203	-0.045207	90.3267	-33.49	57.4526	-17.3258	89.8694	-3.28331	91.0048	-1.08441	89.4899	-7.48629	68.0974	-4.93689	94.1995
380509	-2.05774	87.8188	0.168606	90.4564	-33.3273	57.68	-17.0758	89.8759	-3.03869	90.9529	-0.892359	89.6501	-7.41211	68.3383	-4.73929	94.0457
380510	-1.90543	88.0172	0.382415	90.586	-33.1642	57.9067	-16.8258	89.8823	-2.79406	90.901	-0.700309	89.8102	-7.3378	68.579	-4.54166	93.892
380511	-1.7531	88.2156	0.596219	90.7157	-33.0006	58.1324	-16.5758	89.8887	-2.54944	90.8491	-0.508257	89.9704	-7.26337	68.8197	-4.34399	93.7384
380512	-1.60075	88.414	0.810017	90.8454	-32.8367	58.3574	-16.3258	89.8952	-2.3048	90.7972	-0.316205	90.1305	-7.18882	69.0603	-4.14628	93.5848
380513	-1.44839	88.6124	1.02381	90.9751	-32.6724	58.5815	-16.0759	89.9016	-2.06017	90.7454	-0.124155	90.2907	-7.11415	69.3008	-3.94855	93.4314
380514	-1.29602	88.8107	1.23759	91.1049	-32.5077	58.8048	-15.8259	89.9079	-1.81553	90.6935	0.0678928	90.4508	-7.03936	69.5413	-3.75078	93.278
380515	-1.14363	89.009	1.45136	91.2347	-32.3426	59.0273	-15.5759	89.9143	-1.57089	90.6417	0.259936	90.611	-6.96445	69.7817	-3.55298	93.1247
380516	-0.991242	89.2073	1.66513	91.3645	-32.1771	59.249	-15.3259	89.9207	-1.32625	90.59	0.451974	90.7712	-6.88943	70.022	-3.35515	92.9715
380517	-0.838842	89.4056	1.87888	91.4943	-32.0112	59.4699	-15.0759	89.927	-1.0816	90.5382	0.644005	90.9313	-6.81429	70.2622	-3.1573	92.8183
380518	-0.686436	89.6039	2.09262	91.6242	-31.8449	59.69	-14.8259	89.9334	-0.836955	90.4864	0.836027	91.0915	-6.73904	70.5023	-2.95942	92.6652
380519	-0.534026	89.8021	2.30634	91.7541	-31.6783	59.9092	-14.576	89.9397	-0.592306	90.4347	1.02804	91.2518	-6.66367	70.7424	-2.76151	92.5122
380520	-0.381615	90.0004	2.52005	91.884	-31.5113	60.1278	-14.326	89.9461	-0.347655	90.383	1.22004	91.412	-6.58819	70.9824	-2.56358	92.3592
380521	-0.229204	90.1986	2.73374	92.014	-31.3439	60.3455	-14.076	89.9524	-0.103003	90.3312	1.41203	91.5722	-6.51261	71.2223	-2.36563	92.2062
380522	-0.076794	90.3969	2.94742	92.1441	-31.1762	60.5625	-13.826	89.9587	0.141651	90.2795	1.604	91.7325	-6.43692	71.4622	-2.16766	92.0533
380523	0.0756118	90.5951	3.16108	92.2742	-31.0081	60.7787	-13.576	89.965	0.386305	90.2278	1.79595	91.8929	-6.36112	71.702	-1.96967	91.9005
380524	0.228012	90.7934	3.37472	92.4043	-30.8397	60.9941	-13.326	89.9713	0.630961	90.1761	1.98789	92.0532	-6.28521	71.9417	-1.77166	91.7477
380525	0.380405	90.9916	3.58834	92.5346	-30.6709	61.2088	-13.0761	89.9776	0.875617	90.1244	2.17981	92.2137	-6.2092	72.1813	-1.57364	91.5949
380526	0.532789	91.1899	3.80193	92.6649	-30.5017	61.4227	-12.8261	89.9839	1.12027	90.0727	2.37171	92.3741	-6.13309	72.4209	-1.3756	91.4422
380527	0.685162	91.3882	4.01551	92.7952	-30.3322	61.636	-12.5761	89.9902	1.36493	90.021	2.56358	92.5346	-6.05688	72.6604	-1.17755	91.2895
380528	0.837522	91.5865	4.22906	92.9257	-30.1624	61.8484	-12.3261	89.9964	1.60959	89.9693	2.75543	92.6952	-5.98057	72.8999	-0.979489	91.1368
380529	0.989868	91.7848	4.44259	93.0562	-29.9922	62.0602	-12.0761	90.0027	1.85424	89.9175	2.94726	92.8558	-5.90415	73.1393	-0.781416	90.9842
380530	1.1422	91.9831	4.65609	93.1868	-29.8218	62.2712	-11.8261	90.009	2.0989	89.8658	3.13906	93.0165	-5.82765	73.3786	-0.583333	90.8316
380531	1.29451	92.1815	4.86956	93.3175	-29.6509	62.4815	-11.5761	90.0152	2.34356	89.8141	3.33083	93.1772	-5.75104	73.6179	-0.385243	90.6789
380532	1.4468	92.3799	5.083	93.4482	-29.4798	62.6911	-11.3262	90.0215	2.58821	89.7623	3.52257	93.338	-5.67434	73.8571	-0.187147	90.5263
380533	1.59907	92.5783	5.29642	93.5791	-29.3083	62.9	-11.0762	90.0277	2.83287	89.7105	3.71428	93.4989	-5.59755	74.0962	0.0109546	90.3737
380534	1.75131	92.7768	5.5098	93.71	-29.1365	63.1082	-10.8262	90.034	3.07752	89.6587	3.90596	93.6598	-5.52067	74.3353	0.209059	90.2211
380535	1.90353	92.9753	5.72315	93.8411	-28.9644	63.3157	-10.5762	90.0402	3.32217	89.6069	4.0976	93.8208	-5.44369	74.5743	0.407166	90.0686
380536	2.05572	93.1738	5.93647	93.9723	-28.7919	63.5225	-10.3262	90.0464	3.56682	89.5551	4.2892	93.9819	-5.36663	74.8132	0.605273	89.916
380537	2.20788	93.3724	6.14976	94.1035	-28.6192	63.7287	-10.0762	90.0526	3.81147	89.5033	4.48077	94.1431	-5.28948	75.0521	0.80338	89.7634
380538	2.36002	93.571	6.36301	94.2349	-28.4461	63.9341	-9.82624	90.0589	4.05612	89.4514	4.6723	94.3044	-5.21224	75.291	1.00148	89.6107
380539	2.51211	93.7697	6.57622	94.3664	-28.2728	64.1389	-9.57625	90.0651	4.30076	89.3995	4.86379	94.4658	-5.13492	75.5297	1.19958	89.4581
380540	2.66418	93.9684	6.7894	94.498	-28.0991	64.3431	-9.32627	90.0713	4.54541	89.3476	5.05523	94.6273	-5.05751	75.7685	1.39768	89.3055
380541	2.8162	94.1671	7.00254	94.6297	-27.9252	64.5465	-9.07628	90.0775	4.79005	89.2956	5.24664	94.7888	-4.98003	76.0071	1.59577	89.1528
380542	2.96819	94.366	7.21564	94.7616	-27.7509	64.7494	-8.8263	90.0837	5.03468	89.2437	5.43799	94.9505	-4.90246	76.2457	1.79385	89.0001
380543	3.12014	94.5649	7.4287	94.8936	-27.5764	64.9515	-8.57631	90.0899	5.27932	89.1916	5.6293	95.1123	-4.82481	76.4843	1.99192	88.8474
380544	3.27205	94.7638	7.64171	95.0257	-27.4016	65.1531	-8.32633	90.0961	5.52395	89.1396	5.82057	95.2742	-4.74709	76.7228	2.18999	88.6947
380545	3.42391	94.9628	7.85468	95.1579	-27.2265	65.354	-8.07634	90.1023	5.76858	89.0875	6.01178	95.4362	-4.66928	76.9613	2.38804	88.5419
380546	3.57572	95.1619	8.06761	95.2903	-27.0511	65.5543	-7.82636	90.1085	6.0132	89.0354	6.20294	95.5983	-4.5914	77.1997	2.58607	88.389
380547	3.72749	95.361	8.28049	95.4228	-26.8754	65.754	-7.57637	90.1147	6.25782	88.9832	6.39404	95.7606	-4.51345	77.438	2.78409	88.2362
380548	3.87921	95.5602	8.49333	95.5555	-26.6994	65.953	-7.32639	90.1209	6.50244	88.931	6.5851	95.923	-4.43543	77.6763	2.9821	88.0833
380549	4.03088	95.7595	8.70611	95.6884	-26.5232	66.1514	-7.0764	90.1271	6.74705	88.8787	6.77609	96.0855	-4.35733	77.9146	3.18009	87.9303
380550	4.18249	95.9589	8.91885	95.8214	-26.3467	66.3493	-6.82642	90.1333	6.99166	88.8264	6.96703	96.2481	-4.27917	78.1528	3.37805	87.7773
380551	4.33405	96.1583	9.13154	95.9545	-26.17	66.5465	-6.57644	90.1395	7.23626	88.7741	7.15791	96.4109	-4.20094	78.3909	3.576	87.6242
380552	4.48555	96.3578	9.34417	96.0878	-25.993	66.7431	-6.32645	90.1457	7.48086	88.7216	7.34873	96.5738	-4.12263	78.629	3.77393	87.4711
380553	4.63699	96.5575	9.55676	96.2213	-25.8157	66.9392	-6.07647	90.1519	7.72546	88.6692	7.53948	96.7369	-4.04427	78.8671	3.97183	87.3179
380554	4.78837	96.7572	9.76928	96.355	-25.6381	67.1347	-5.82648	90.1581	7.97004	88.6167	7.73017	96.9001	-3.96584	79.1051	4.16971	87.1646
380555	4.93969	96.957	9.98176	96.4888	-25.4603	67.3295	-5.5765	90.1642	8.21463	88.5641	7.9208	97.0634	-3.88734	79.3431	4.36756	87.0112
380556	5.09095	97.1569	10.1942	96.6228	-25.2823	67.5239	-5.32651	90.1704	8.45921	88.5115	8.11135	97.2269	-3.80879	79.5811	4.56539	86.8578
380557	5.24213	97.3569	10.4065	96.757	-25.104	67.7176	-5.07653	90.1766	8.70378	88.4588	8.30184	97.3906	-3.73017	79.819	4.76318	86.7043
380558	5.39325	97.557	10.6188	96.8914	-24.9254	67.9108	-4.82655	90.1828	8.94834	88.406	8.49226	97.5545	-3.6515	80.0568	4.96095	86.5507
380559	5.5443	97.7571	10.8311	97.026	-24.7466	68.1035	-4.57656	90.189	9.1929	88.3532	8.6826	97.7185	-3.57277	80.2946	5.15868	86.3971
380560	5.69528	97.9574	11.0433	97.1608	-24.5676	68.2955	-4.32658	90.1952	9.43746	88.3003	8.87287	97.8826	-3.49398	80.5324	5.35638	86.2433
380561	5.84618	98.1579	11.2554	97.2958	-24.3883	68.4871	-4.0766	90.2014	9.682	88.2474	9.06307	98.047	-3.41514	80.7701	5.55405	86.0894
380562	5.99701	98.3584	11.4674	97.4309	-24.2088	68.6781	-3.82661	90.2076	9.92654	88.1944	9.25319	98.2115	-3.33624	81.0078	5.75167	85.9355
380563	6.14776	98.559	11.6794	97.5663	-24.0291	68.8686	-3.57663	90.2138	10.1711	88.1413	9.44322	98.3762	-3.25729	81.2455	5.94927	85.7814
380564	6.29843	98.7598	11.8913	97.7019	-23.8491	69.0585	-3.32664	90.22	10.4156	88.0881	9.63318	98.5412	-3.17829	81.4831	6.14682	85.6273
380565	6.44902	98.9606	12.1032	97.8377	-23.6689	69.2479	-3.07666	90.2262	10.6601	88.0348	9.82306	98.7062	-3.09924	81.7207	6.34433	85.473
380566	6.59952	99.1616	12.3149	97.9738	-23.4884	69.4368	-2.82668	90.2324	10.9046	87.9815	10.0129	98.8715	-3.02015	81.9583	6.5418	85.3186
380567	6.74995	99.3628	12.5267	98.1101	-23.3078	69.6252	-2.57669	90.2386	11.1491	87.9281	10.2026	99.037	-2.94101	82.1958	6.73923	85.1641
380568	6.90028	99.564	12.7383	98.2465	-23.1269	69.8131	-2.32671	90.2448	11.3936	87.8746	10.3922	99.2027	-2.86182	82.4333	6.93661	85.0095
380569	7.05052	99.7654	12.9499	98.3833	-22.9458	70.0005	-2.07673	90.2511	11.6381	87.821	10.5817	99.3686	-2.78259	82.6708	7.13394	84.8547
380570	7.20067	99.9669	13.1614	98.5202	-22.7645	70.1874	-1.82675	90.2573	11.8826	87.7673	10.7711	99.5347	-2.70331	82.9082	7.33123	84.6998
380571	7.35073	100.169	13.3728	98.6574	-22.583	70.3738	-1.57676	90.2635	12.1271	87.7136	10.9605	99.701	-2.624	83.1456	7.52846	84.5448
380572	7.5007	100.37	13.5841	98.7949	-22.4012	70.5597	-1.32678	90.2697	12.3715	87.6597	11.1497	99.8675	-2.54465	83.383	7.72565	84.3897
380573	7.65056	100.572	13.7953	98.9326	-22.2193	70.7451	-1.0768	90.276	12.616	87.6058	11.3389	100.034	-2.46525	83.6203	7.92279	84.2344
380574	7.80033	100.774	14.0065	99.0705	-22.0371	70.93	-0.826817	90.2822	12.8604	87.5517	11.528	100.201	-2.38582	83.8577	8.11987	84.0789
380575	7.95	100.977	14.2176	99.2088	-21.8548	71.1145	-0.576835	90.2884	13.1048	87.4976	11.7169	100.368	-2.30636	84.0949	8.31689	83.9234
380576	8.09957	101.179	14.4286	99.3473	-21.6722	71.2985	-0.326853	90.2947	13.3492	87.4433	11.9058	100.536	-2.22686	84.3322	8.51386	83.7676
380577	8.24903	101.382	14.6396	99.486	-21.4895	71.4821	-0.0768716	90.301	13.5937	87.389	12.0945	100.704	-2.14733	84.5695	8.71077	83.6117
380578	8.39838	101.584	14.8504	99.625	-21.3065	71.6651	0.17311	90.3072	13.8381	87.3345	12.2832	100.871	-2.06776	84.8067	8.90762	83.4557
380579	8.54763	101.787	15.0612	99.7643	-21.1234	71.8478	0.423091	90.3135	14.0824	87.28	12.4717	101.04	-1.98817	85.0439	9.10441	83.2995
380580	8.69676	101.99	15.2718	99.9039	-20.94	72.03	0.673072	90.3197	14.3268	87.2253	12.6602	101.208	-1.90855	85.2811	9.30113	83.1431
380581	8.84578	102.193	15.4824	100.044	-20.7565	72.2117	0.923054	90.326	14.5712	87.1705	12.8485	101.377	-1.8289	85.5182	9.49779	82.9865
380582	8.99469	102.397	15.6929	100.184	-20.5728	72.393	1.17304	90.3323	14.8155	87.1156	13.0367	101.546	-1.74922	85.7554	9.69439	82.8298
380583	9.14348	102.6	15.9033	100.324	-20.3889	72.5739	1.42301	90.3386	15.0599	87.0606	13.2248	101.715	-1.66952	85.9925	9.89092	82.6729
380584	9.29215	102.804	16.1136	100.465	-20.2048	72.7544	1.673	90.3449	15.3042	87.0054	13.4128	101.884	-1.5898	86.2296	10.0874	82.5158
380585	9.44071	103.008	16.3238	100.606	-20.0206	72.9344	1.92298	90.3512	15.5485	86.9502	13.6006	102.054	-1.51005	86.4667	10.2838	82.3586
380586	9.58914	103.212	16.5339	100.748	-19.8361	73.114	2.17296	90.3575	15.7928	86.8948	13.7884	102.224	-1.43029	86.7038	10.4801	82.2011
380587	9.73744	103.416	16.7439	100.889	-19.6515	73.2932	2.42294	90.3638	16.0371	86.8393	13.976	102.394	-1.3505	86.9408	10.6763	82.0434
380588	9.88562	103.62	16.9538	101.031	-19.4667	73.472	2.67292	90.3702	16.2814	86.7836	14.1635	102.565	-1.2707	87.1779	10.8725	81.8856
380589	10.0337	103.825	17.1636	101.174	-19.2818	73.6504	2.9229	90.3765	16.5257	86.7278	14.3509	102.736	-1.19088	87.4149	11.0686	81.7275
380590	10.1816	104.03	17.3733	101.316	-19.0966	73.8284	3.17288	90.3829	16.7699	86.6719	14.5382	102.907	-1.11105	87.6519	11.2646	81.5692
380591	10.3294	104.235	17.5829	101.459	-18.9113	74.006	3.42286	90.3892	17.0142	86.6158	14.7253	103.078	-1.0312	87.8889	11.4605	81.4108
380592	10.477	104.44	17.7924	101.602	-18.7259	74.1832	3.67283	90.3956	17.2584	86.5597	14.9123	103.25	-0.951341	88.126	11.6564	81.2521
380593	10.6245	104.645	18.0018	101.746	-18.5403	74.36	3.92281	90.402	17.5026	86.5033	15.0991	103.422	-0.871471	88.3629	11.8521	81.0932
380594	10.7719	104.851	18.2111	101.89	-18.3545	74.5365	4.17279	90.4083	17.7468	86.4468	15.2859	103.594	-0.791591	88.5999	12.0478	80.934
380595	10.9192	105.057	18.4202	102.034	-18.1685	74.7125	4.42277	90.4147	17.991	86.3902	15.4725	103.767	-0.711703	88.8369	12.2434	80.7747
380596	11.0663	105.263	18.6293	102.179	-17.9824	74.8882	4.67275	90.4211	18.2352	86.3334	15.6589	103.94	-0.631808	89.0739	12.4389	80.6151
380597	11.2132	105.469	18.8382	102.324	-17.7962	75.0636	4.92273	90.4276	18.4793	86.2765	15.8452	104.113	-0.551908	89.3108	12.6343	80.4552
380598	11.36	105.675	19.0471	102.47	-17.6098	75.2385	5.1727	90.434	18.7234	86.2194	16.0314	104.287	-0.472004	89.5478	12.8297	80.2952
380599	11.5067	105.882	19.2558	102.615	-17.4232	75.4131	5.42268	90.4404	18.9676	86.1622	16.2174	104.461	-0.392098	89.7848	13.0249	80.1349
380600	11.6532	106.089	19.4643	102.762	-17.2365	75.5874	5.67266	90.4469	19.2117	86.1047	16.4033	104.635	-0.31219	90.0217	13.22	79.9743
380601	11.7995	106.296	19.6728	102.908	-17.0497	75.7613	5.92264	90.4533	19.4558	86.0472	16.589	104.81	-0.232282	90.2587	13.4151	79.8135
380602	11.9457	106.503	19.8811	103.055	-16.8627	75.9349	6.17261	90.4598	19.6998	85.9894	16.7746	104.985	-0.152376	90.4956	13.61	79.6524
380603	12.0918	106.711	20.0894	103.203	-16.6755	76.1081	6.42259	90.4663	19.9439	85.9315	16.96	105.16	-0.0724723	90.7326	13.8049	79.4911
380604	12.2377	106.918	20.2975	103.35	-16.4883	76.281	6.67257	90.4728	20.1879	85.8734	17.1453	105.336	0.0074269	90.9695	13.9996	79.3295
380605	12.3834	107.126	20.5054	103.499	-16.3009	76.4536	6.92254	90.4793	20.4319	85.8152	17.3304	105.512	0.0873204	91.2065	14.1942	79.1676
380606	12.5289	107.335	20.7132	103.647	-16.1133	76.6258	7.17252	90.4858	20.6759	85.7567	17.5154	105.688	0.167207	91.4434	14.3888	79.0055
380607	12.6743	107.543	20.9209	103.796	-15.9256	76.7977	7.42249	90.4924	20.9199	85.6981	17.7002	105.865	0.247085	91.6804	14.5832	78.8431
380608	12.8195	107.752	21.1285	103.945	-15.7378	76.9693	7.67247	90.4989	21.1639	85.6393	17.8848	106.042	0.326954	91.9173	14.7775	78.6804
380609	12.9646	107.961	21.3359	104.095	-15.5498	77.1406	7.92244	90.5055	21.4078	85.5803	18.0693	106.219	0.406811	92.1543	14.9717	78.5174
380610	13.1095	108.17	21.5432	104.246	-15.3618	77.3116	8.17242	90.512	21.6517	85.5211	18.2536	106.397	0.486656	92.3913	15.1658	78.3541
380611	13.2542	108.38	21.7504	104.396	-15.1736	77.4822	8.42239	90.5186	21.8956	85.4618	18.4378	106.576	0.566487	92.6283	15.3598	78.1905
380612	13.3987	108.589	21.9574	104.547	-14.9852	77.6526	8.67237	90.5252	22.1395	85.4022	18.6217	106.754	0.646303	92.8653	15.5536	78.0267
380613	13.5431	108.799	22.1643	104.699	-14.7968	77.8227	8.92234	90.5319	22.3834	85.3424	18.8055	106.933	0.726102	93.1023	15.7474	77.8625
380614	13.6872	109.009	22.371	104.851	-14.6082	77.9925	9.17232	90.5385	22.6272	85.2824	18.9891	107.113	0.805883	93.3393	15.941	77.698
380615	13.8312	109.22	22.5776	105.003	-14.4195	78.162	9.42229	90.5451	22.8711	85.2223	19.1726	107.293	0.885645	93.5763	16.1345	77.5332
380616	13.975	109.431	22.784	105.156	-14.2307	78.3312	9.67226	90.5518	23.1149	85.1619	19.3558	107.473	0.965387	93.8133	16.3279	77.3681
380617	14.1186	109.642	22.9903	105.31	-14.0418	78.5002	9.92224	90.5585	23.3586	85.1013	19.5389	107.653	1.04511	94.0504	16.5212	77.2027
380618	14.2621	109.853	23.1965	105.464	-13.8528	78.6688	10.1722	90.5652	23.6024	85.0404	19.7218	107.834	1.1248	94.2875	16.7143	77.0369
380619	14.4053	110.064	23.4025	105.618	-13.6636	78.8372	10.4222	90.5719	23.8461	84.9794	19.9045	108.016	1.20447	94.5245	16.9073	76.8708
380620	14.5483	110.276	23.6083	105.773	-13.4744	79.0054	10.6722	90.5786	24.0898	84.9181	20.0871	108.198	1.28412	94.7616	17.1002	76.7044
380621	14.6912	110.489	23.8139	105.928	-13.285	79.1732	10.9221	90.5854	24.3335	84.8566	20.2694	108.38	1.36373	94.9987	17.2929	76.5376
380622	14.8338	110.701	24.0194	106.084	-13.0955	79.3408	11.1721	90.5921	24.5772	84.7949	20.4515	108.563	1.44332	95.2359	17.4855	76.3705
380623	14.9763	110.913	24.2248	106.24	-12.906	79.5082	11.4221	90.5989	24.8208	84.733	20.6334	108.746	1.52288	95.473	17.678	76.2031
380624	15.1185	111.126	24.43	106.397	-12.7163	79.6753	11.672	90.6057	25.0645	84.6708	20.8152	108.93	1.60241	95.7102	17.8704	76.0352
380625	15.2606	111.34	24.635	106.555	-12.5265	79.8422	11.922	90.6125	25.3081	84.6083	20.9967	109.114	1.6819	95.9474	18.0626	75.8671
380626	15.4024	111.553	24.8398	106.713	-12.3366	80.0088	12.172	90.6194	25.5516	84.5456	21.1781	109.298	1.76136	96.1846	18.2546	75.6985
380627	15.544	111.767	25.0445	106.871	-12.1466	80.1752	12.422	90.6262	25.7952	84.4827	21.3592	109.483	1.84078	96.4218	18.4465	75.5296
380628	15.6855	111.981	25.249	107.03	-11.9566	80.3413	12.6719	90.6331	26.0387	84.4195	21.5401	109.669	1.92017	96.659	18.6383	75.3604
380629	15.8267	112.196	25.4534	107.189	-11.7664	80.5072	12.9219	90.64	26.2822	84.3561	21.7208	109.855	1.99952	96.8963	18.8299	75.1907
380630	15.9676	112.41	25.6575	107.349	-11.5761	80.6729	13.1719	90.6469	26.5256	84.2924	21.9014	110.041	2.07882	97.1336	19.0214	75.0207
380631	16.1084	112.626	25.8615	107.51	-11.3858	80.8384	13.4218	90.6539	26.7691	84.2284	22.0816	110.228	2.15809	97.3709	19.2127	74.8503
380632	16.249	112.841	26.0653	107.671	-11.1953	81.0037	13.6718	90.6608	27.0125	84.1642	22.2617	110.415	2.23731	97.6083	19.4038	74.6794
380633	16.3893	113.056	26.2689	107.833	-11.0048	81.1687	13.9218	90.6678	27.2559	84.0997	22.4416	110.603	2.31649	97.8457	19.5948	74.5082
380634	16.5294	113.272	26.4723	107.995	-10.8142	81.3335	14.1717	90.6748	27.4992	84.0349	22.6212	110.791	2.39563	98.0831	19.7857	74.3366
380635	16.6692	113.489	26.6756	108.158	-10.6235	81.4982	14.4217	90.6818	27.7425	83.9699	22.8006	110.98	2.47472	98.3205	19.9764	74.1646
380636	16.8089	113.705	26.8786	108.322	-10.4327	81.6626	14.6717	90.6889	27.9858	83.9045	22.9798	111.17	2.55376	98.558	20.1669	73.9922
380637	16.9483	113.922	27.0815	108.486	-10.2419	81.8268	14.9216	90.6959	28.2291	83.8389	23.1587	111.359	2.63275	98.7955	20.3573	73.8193
380638	17.0875	114.14	27.2841	108.65	-10.0509	81.9909	15.1716	90.703	28.4723	83.773	23.3375	111.55	2.71169	99.033	20.5475	73.6461
380639	17.2264	114.357	27.4866	108.816	-9.85993	82.1547	15.4216	90.7101	28.7155	83.7068	23.5159	111.741	2.79057	99.2706	20.7375	73.4724
380640	17.3651	114.575	27.6889	108.981	-9.66884	82.3184	15.6715	90.7173	28.9587	83.6402	23.6942	111.932	2.86941	99.5082	20.9273	73.2982
380641	17.5035	114.793	27.8909	109.148	-9.47768	82.4819	15.9215	90.7244	29.2019	83.5734	23.8722	112.124	2.94818	99.7458	21.117	73.1237
380642	17.6417	115.012	28.0928	109.315	-9.28645	82.6452	16.1715	90.7316	29.445	83.5063	24.0499	112.317	3.02691	99.9835	21.3065	72.9487
380643	17.7797	115.231	28.2944	109.483	-9.09514	82.8083	16.4214	90.7388	29.6881	83.4388	24.2274	112.51	3.10557	100.221	21.4959	72.7732
380644	17.9174	115.45	28.4959	109.651	-8.90377	82.9713	16.6714	90.7461	29.9311	83.3711	24.4047	112.703	3.18418	100.459	21.685	72.5973
380645	18.0549	115.67	28.6971	109.82	-8.71233	83.1341	16.9213	90.7533	30.1741	83.303	24.5817	112.897	3.26272	100.697	21.874	72.421
380646	18.1921	115.89	28.8981	109.99	-8.52082	83.2967	17.1713	90.7606	30.4171	83.2345	24.7585	113.092	3.3412	100.934	22.0628	72.2441
380647	18.329	116.11	29.0989	110.161	-8.32925	83.4592	17.4213	90.7679	30.66	83.1658	24.935	113.287	3.41962	101.172	22.2513	72.0669
380648	18.4657	116.331	29.2995	110.332	-8.13762	83.6215	17.6712	90.7752	30.9029	83.0967	25.1112	113.483	3.49798	101.41	22.4398	71.8891
380649	18.6022	116.552	29.4998	110.503	-7.94592	83.7836	17.9212	90.7826	31.1458	83.0272	25.2872	113.679	3.57627	101.648	22.628	71.7108
380650	18.7383	116.773	29.7	110.676	-7.75417	83.9457	18.1712	90.79	31.3886	82.9574	25.4629	113.876	3.65449	101.886	22.816	71.5321
380651	18.8742	116.995	29.8999	110.849	-7.56236	84.1076	18.4211	90.7974	31.6315	82.8873	25.6384	114.073	3.73265	102.124	23.0038	71.3529
380652	19.0099	117.217	30.0995	111.023	-7.37049	84.2693	18.6711	90.8049	31.8742	82.8168	25.8135	114.272	3.81073	102.362	23.1915	71.1732
380653	19.1452	117.439	30.299	111.197	-7.17857	84.4309	18.921	90.8123	32.117	82.7459	25.9884	114.47	3.88874	102.6	23.3789	70.993
380654	19.2803	117.662	30.4982	111.373	-6.9866	84.5924	19.171	90.8199	32.3596	82.6747	26.1631	114.669	3.96668	102.839	23.5661	70.8123
380655	19.4151	117.885	30.6971	111.549	-6.79457	84.7537	19.421	90.8274	32.6023	82.603	26.3374	114.869	4.04455	103.077	23.7532	70.6311
380656	19.5497	118.109	30.8958	111.725	-6.6025	84.9149	19.6709	90.835	32.8449	82.531	26.5115	115.07	4.12234	103.315	23.94	70.4493
380657	19.6839	118.333	31.0943	111.903	-6.41038	85.076	19.9209	90.8425	33.0875	82.4587	26.6852	115.271	4.20005	103.553	24.1266	70.2671
380658	19.8179	118.557	31.2925	112.081	-6.21821	85.237	20.1708	90.8502	33.33	82.3859	26.8587	115.473	4.27769	103.792	24.313	70.0843
380659	19.9516	118.782	31.4905	112.26	-6.02599	85.3979	20.4208	90.8578	33.5725	82.3127	27.0319	115.675	4.35524	104.03	24.4991	69.901
380660	20.085	119.007	31.6882	112.44	-5.83373	85.5586	20.6707	90.8655	33.8149	82.2391	27.2048	115.878	4.43272	104.269	24.6851	69.7171
380661	20.2181	119.233	31.8857	112.62	-5.64143	85.7193	20.9207	90.8732	34.0573	82.1651	27.3774	116.082	4.51011	104.507	24.8708	69.5327
380662	20.3509	119.459	32.0829	112.801	-5.44909	85.8798	21.1706	90.881	34.2997	82.0907	27.5497	116.286	4.58742	104.746	25.0564	69.3478
380663	20.4834	119.685	32.2798	112.983	-5.25671	86.0403	21.4206	90.8888	34.542	82.0159	27.7217	116.491	4.66464	104.984	25.2416	69.1623
380664	20.6156	119.912	32.4765	113.166	-5.0643	86.2006	21.6705	90.8966	34.7843	81.9406	27.8934	116.696	4.74178	105.223	25.4267	68.9762
380665	20.7475	120.139	32.6729	113.35	-4.87184	86.3609	21.9205	90.9044	35.0265	81.8649	28.0648	116.902	4.81883	105.462	25.6115	68.7896
380666	20.8791	120.366	32.869	113.534	-4.67936	86.5211	22.1704	90.9123	35.2687	81.7888	28.2359	117.109	4.89579	105.7	25.7961	68.6024
380667	21.0104	120.594	33.0649	113.72	-4.48684	86.6812	22.4204	90.9202	35.5109	81.7122	28.4066	117.317	4.97266	105.939	25.9805	68.4146
380668	21.1414	120.822	33.2605	113.906	-4.29429	86.8412	22.6704	90.9282	35.7529	81.6351	28.5771	117.525	5.04944	106.178	26.1646	68.2262
380669	21.2721	121.051	33.4558	114.093	-4.1017	87.0011	22.9203	90.9362	35.995	81.5576	28.7472	117.734	5.12613	106.417	26.3485	68.0373
380670	21.4025	121.28	33.6508	114.281	-3.90909	87.161	23.1703	90.9442	36.237	81.4796	28.9169	117.943	5.20272	106.656	26.5322	67.8477
380671	21.5325	121.51	33.8455	114.469	-3.71646	87.3208	23.4202	90.9523	36.4789	81.4012	29.0864	118.154	5.27921	106.895	26.7156	67.6576
380672	21.6623	121.739	34.0399	114.659	-3.5238	87.4805	23.6702	90.9604	36.7208	81.3222	29.2555	118.365	5.35561	107.134	26.8987	67.4668
380673	21.7917	121.97	34.234	114.849	-3.33111	87.6402	23.9201	90.9685	36.9627	81.2428	29.4243	118.576	5.43191	107.374	27.0816	67.2754
380674	21.9208	122.201	34.4279	115.041	-3.13841	87.7998	24.17	90.9767	37.2045	81.1629	29.5927	118.789	5.5081	107.613	27.2642	67.0834
380675	22.0495	122.432	34.6214	115.233	-2.94568	87.9593	24.42	90.9849	37.4462	81.0825	29.7608	119.002	5.5842	107.852	27.4466	66.8908
380676	22.1779	122.663	34.8146	115.426	-2.75293	88.1188	24.67	90.9932	37.6879	81.0015	29.9286	119.216	5.6602	108.091	27.6287	66.6976
380677	22.306	122.895	35.0075	115.62	-2.56017	88.2783	24.9199	91.0015	37.9295	80.9201	30.0959	119.43	5.73609	108.331	27.8105	66.5037
380678	22.4338	123.128	35.2001	115.815	-2.36739	88.4377	25.1698	91.0098	38.1711	80.8381	30.263	119.645	5.81187	108.57	27.9921	66.3091
380679	22.5612	123.361	35.3924	116.011	-2.17459	88.5971	25.4198	91.0182	38.4126	80.7555	30.4297	119.861	5.88755	108.81	28.1734	66.114
380680	22.6882	123.594	35.5843	116.208	-1.98178	88.7564	25.6697	91.0266	38.6541	80.6724	30.596	120.078	5.96312	109.05	28.3545	65.9181
380681	22.815	123.828	35.7759	116.406	-1.78896	88.9157	25.9197	91.0351	38.8955	80.5888	30.7619	120.296	6.03858	109.289	28.5353	65.7216
380682	22.9413	124.062	35.9672	116.604	-1.59613	89.075	26.1696	91.0436	39.1369	80.5046	30.9275	120.514	6.11393	109.529	28.7157	65.5244
380683	23.0674	124.297	36.1582	116.804	-1.40329	89.2342	26.4196	91.0521	39.3781	80.4199	31.0927	120.733	6.18917	109.769	28.8959	65.3266
380684	23.1931	124.532	36.3488	117.005	-1.21045	89.3935	26.6695	91.0607	39.6194	80.3345	31.2576	120.953	6.26429	110.009	29.0758	65.128
380685	23.3184	124.767	36.5391	117.206	-1.0176	89.5527	26.9194	91.0694	39.8606	80.2486	31.422	121.173	6.3393	110.249	29.2555	64.9288
380686	23.4433	125.003	36.729	117.409	-0.82474	89.7119	27.1694	91.0781	40.1017	80.162	31.5861	121.394	6.4142	110.489	29.4348	64.7289
380687	23.5679	125.24	36.9186	117.613	-0.631881	89.8711	27.4193	91.0868	40.3427	80.0749	31.7498	121.617	6.48897	110.729	29.6139	64.5283
380688	23.6922	125.477	37.1078	117.817	-0.439021	90.0302	27.6693	91.0956	40.5837	79.9872	31.9131	121.84	6.56363	110.969	29.7926	64.327
380689	23.8161	125.714	37.2967	118.023	-0.246161	90.1894	27.9192	91.1044	40.8246	79.8988	32.076	122.063	6.63816	111.21	29.971	64.1249
380690	23.9396	125.952	37.4852	118.23	-0.0533036	90.3486	28.1691	91.1133	41.0654	79.8098	32.2385	122.288	6.71258	111.45	30.1492	63.9222
380691	24.0627	126.19	37.6734	118.438	0.139551	90.5078	28.4191	91.1222	41.3062	79.7201	32.4006	122.513	6.78687	111.69	30.327	63.7187
380692	24.1854	126.428	37.8612	118.647	0.332401	90.6669	28.669	91.1312	41.5469	79.6298	32.5622	122.739	6.86104	111.931	30.5045	63.5144
380693	24.3078	126.668	38.0486	118.857	0.525244	90.8261	28.9189	91.1402	41.7876	79.5388	32.7235	122.966	6.93508	112.171	30.6817	63.3095
380694	24.4298	126.907	38.2356	119.068	0.71808	90.9853	29.1689	91.1492	42.0282	79.4471	32.8844	123.194	7.00899	112.412	30.8586	63.1038
380695	24.5514	127.147	38.4222	119.28	0.910907	91.1446	29.4188	91.1584	42.2687	79.3548	33.0448	123.422	7.08278	112.653	31.0352	62.8973
380696	24.6726	127.388	38.6085	119.493	1.10372	91.3038	29.6687	91.1676	42.5091	79.2617	33.2048	123.652	7.15643	112.894	31.2114	62.6901
380697	24.7935	127.629	38.7943	119.707	1.29653	91.4631	29.9187	91.1768	42.7495	79.168	33.3644	123.882	7.22996	113.135	31.3873	62.4821
380698	24.9139	127.871	38.9798	119.923	1.48932	91.6224	30.1686	91.1861	42.9897	79.0735	33.5236	124.113	7.30335	113.376	31.5629	62.2733
380699	25.034	128.113	39.1648	120.14	1.68209	91.7817	30.4185	91.1954	43.2299	78.9783	33.6823	124.345	7.37661	113.617	31.7381	62.0638
380700	25.1536	128.355	39.3494	120.357	1.87485	91.9411	30.6684	91.2048	43.4701	78.8823	33.8406	124.578	7.44973	113.858	31.913	61.8534
380701	25.2728	128.598	39.5337	120.576	2.06759	92.1005	30.9184	91.2142	43.7101	78.7856	33.9984	124.812	7.52272	114.099	32.0876	61.6423
380702	25.3917	128.841	39.7175	120.796	2.26031	92.26	31.1683	91.2237	43.9501	78.6881	34.1558	125.047	7.59557	114.34	32.2618	61.4303
380703	25.5101	129.085	39.9009	121.018	2.45301	92.4195	31.4182	91.2333	44.19	78.5899	34.3127	125.282	7.66828	114.582	32.4357	61.2176
380704	25.6281	129.33	40.0838	121.24	2.64568	92.579	31.6682	91.2429	44.4298	78.4908	34.4692	125.518	7.74084	114.823	32.6092	61.004
380705	25.7458	129.575	40.2664	121.464	2.83833	92.7386	31.9181	91.2526	44.6695	78.391	34.6252	125.756	7.81327	115.065	32.7823	60.7897
380706	25.863	129.82	40.4485	121.689	3.03096	92.8983	32.168	91.2624	44.9091	78.2903	34.7807	125.994	7.88555	115.306	32.9551	60.5744
380707	25.9797	130.066	40.6301	121.915	3.22356	93.058	32.4179	91.2722	45.1487	78.1888	34.9358	126.233	7.95769	115.548	33.1275	60.3584
380708	26.0961	130.312	40.8113	122.142	3.41613	93.2178	32.6678	91.282	45.3881	78.0864	35.0904	126.473	8.02969	115.79	33.2996	60.1415
380709	26.212	130.559	40.9921	122.371	3.60867	93.3776	32.9177	91.292	45.6275	77.9832	35.2445	126.714	8.10153	116.032	33.4712	59.9238
380710	26.3275	130.806	41.1724	122.601	3.80118	93.5376	33.1677	91.302	45.8668	77.8791	35.3982	126.956	8.17323	116.274	33.6425	59.7052
380711	26.4426	131.054	41.3522	122.832	3.99365	93.6976	33.4176	91.312	46.1059	77.7741	35.5513	127.198	8.24478	116.516	33.8135	59.4857
380712	26.5572	131.302	41.5315	123.064	4.18609	93.8577	33.6675	91.3221	46.345	77.6682	35.704	127.442	8.31617	116.758	33.984	59.2654
380713	26.6714	131.551	41.7104	123.298	4.3785	94.0178	33.9174	91.3323	46.584	77.5614	35.8561	127.687	8.38741	117.001	34.1542	59.0441
380714	26.7852	131.8	41.8888	123.533	4.57086	94.1781	34.1673	91.3426	46.8229	77.4536	36.0078	127.932	8.4585	117.243	34.3239	58.822
380715	26.8985	132.05	42.0667	123.77	4.76319	94.3384	34.4173	91.3529	47.0617	77.3449	36.1589	128.179	8.52944	117.485	34.4933	58.599
380716	27.0113	132.301	42.2441	124.007	4.95547	94.4989	34.6672	91.3633	47.3004	77.2352	36.3095	128.426	8.60021	117.728	34.6622	58.3751
380717	27.1237	132.552	42.4211	124.246	5.14772	94.6594	34.9171	91.3738	47.539	77.1246	36.4597	128.674	8.67083	117.97	34.8308	58.1503
380718	27.2357	132.803	42.5975	124.487	5.33992	94.82	35.167	91.3843	47.7775	77.0129	36.6093	128.924	8.74129	118.213	34.9989	57.9246
380719	27.3472	133.055	42.7734	124.728	5.53207	94.9808	35.4169	91.3949	48.0158	76.9002	36.7583	129.174	8.81159	118.456	35.1666	57.698
380720	27.4583	133.307	42.9488	124.972	5.72418	95.1416	35.6668	91.4056	48.2541	76.7865	36.9068	129.426	8.88173	118.699	35.3339	57.4704
380721	27.5689	133.56	43.1236	125.216	5.91623	95.3026	35.9167	91.4164	48.4922	76.6718	37.0548	129.678	8.9517	118.942	35.5008	57.2419
380722	27.679	133.813	43.298	125.462	6.10824	95.4637	36.1666	91.4272	48.7303	76.5559	37.2023	129.931	9.02151	119.185	35.6672	57.0124
380723	27.7886	134.067	43.4718	125.71	6.3002	95.6249	36.4165	91.4381	48.9682	76.439	37.3492	130.185	9.09116	119.428	35.8333	56.782
380724	27.8978	134.322	43.645	125.958	6.4921	95.7862	36.6664	91.4491	49.206	76.3209	37.4956	130.441	9.16063	119.671	35.9988	56.5506
380725	28.0065	134.577	43.8178	126.209	6.68395	95.9477	36.9163	91.4602	49.4437	76.2018	37.6413	130.697	9.22994	119.915	36.164	56.3183
380726	28.1148	134.832	43.9899	126.46	6.87574	96.1093	37.1662	91.4714	49.6813	76.0814	37.7866	130.954	9.29908	120.158	36.3287	56.085
380727	28.2225	135.088	44.1615	126.713	7.06747	96.271	37.4161	91.4826	49.9187	75.9599	37.9312	131.213	9.36804	120.402	36.4929	55.8507
380728	28.3298	135.345	44.3325	126.968	7.25914	96.4329	37.666	91.4939	50.156	75.8372	38.0753	131.472	9.43684	120.646	36.6567	55.6154
380729	28.4366	135.601	44.503	127.224	7.45076	96.5948	37.9159	91.5053	50.3932	75.7133	38.2189	131.732	9.50545	120.889	36.8201	55.3791
380730	28.5428	135.859	44.6729	127.482	7.64231	96.757	38.1658	91.5168	50.6303	75.5882	38.3618	131.994	9.5739	121.133	36.9829	55.1419
380731	28.6486	136.117	44.8422	127.741	7.83379	96.9193	38.4157	91.5284	50.8672	75.4618	38.5041	132.256	9.64217	121.377	37.1453	54.9036
380732	28.7539	136.376	45.0109	128.002	8.02521	97.0817	38.6656	91.5401	51.104	75.3341	38.6459	132.52	9.71026	121.621	37.3072	54.6643
380733	28.8587	136.635	45.179	128.264	8.21656	97.2444	38.9155	91.5518	51.3406	75.2051	38.787	132.784	9.77817	121.865	37.4687	54.4239
380734	28.963	136.894	45.3464	128.528	8.40784	97.4071	39.1654	91.5637	51.5771	75.0748	38.9276	133.05	9.8459	122.11	37.6296	54.1825
380735	29.0668	137.155	45.5133	128.793	8.59905	97.5701	39.4153	91.5756	51.8135	74.9431	39.0675	133.317	9.91345	122.354	37.7901	53.9401
380736	29.1701	137.415	45.6795	129.06	8.79019	97.7332	39.6651	91.5877	52.0497	74.8101	39.2068	133.584	9.98081	122.599	37.9501	53.6967
380737	29.2729	137.676	45.8452	129.329	8.98126	97.8965	39.915	91.5998	52.2858	74.6757	39.3455	133.853	10.048	122.843	38.1096	53.4522
380738	29.3752	137.938	46.0101	129.599	9.17225	98.0599	40.1649	91.612	52.5217	74.5398	39.4836	134.123	10.115	123.088	38.2686	53.2066
380739	29.4769	138.2	46.1745	129.871	9.36316	98.2236	40.4148	91.6244	52.7575	74.4025	39.621	134.394	10.1818	123.333	38.427	52.9599
380740	29.5781	138.463	46.3381	130.144	9.55399	98.3874	40.6647	91.6368	52.9931	74.2636	39.7579	134.666	10.2484	123.578	38.585	52.7122
380741	29.6788	138.726	46.5012	130.419	9.74474	98.5514	40.9146	91.6493	53.2285	74.1233	39.894	134.939	10.3148	123.823	38.7424	52.4634
380742	29.779	138.99	46.6635	130.696	9.93541	98.7156	41.1644	91.662	53.4638	73.9814	40.0295	135.213	10.3811	124.068	38.8993	52.2135
380743	29.8786	139.255	46.8252	130.974	10.126	98.88	41.4143	91.6747	53.6989	73.838	40.1644	135.488	10.4471	124.313	39.0557	51.9625
380744	29.9777	139.52	46.9862	131.254	10.3165	99.0446	41.6642	91.6876	53.9339	73.693	40.2986	135.765	10.513	124.558	39.2116	51.7104
380745	30.0763	139.785	47.1465	131.536	10.5069	99.2094	41.9141	91.7005	54.1686	73.5463	40.4321	136.042	10.5786	124.804	39.3669	51.4572
380746	30.1743	140.051	47.306	131.82	10.6972	99.3744	42.1639	91.7136	54.4032	73.398	40.565	136.321	10.6441	125.049	39.5216	51.2028
380747	30.2718	140.318	47.4649	132.105	10.8875	99.5396	42.4138	91.7268	54.6376	73.248	40.6972	136.601	10.7094	125.295	39.6758	50.9474
380748	30.3687	140.585	47.6231	132.392	11.0776	99.705	42.6637	91.7401	54.8719	73.0962	40.8287	136.881	10.7744	125.541	39.8295	50.6908
380749	30.4651	140.852	47.7805	132.68	11.2676	99.8707	42.9135	91.7535	55.1059	72.9427	40.9595	137.163	10.8393	125.787	39.9826	50.433
380750	30.5609	141.12	47.9372	132.971	11.4576	100.037	43.1634	91.767	55.3397	72.7874	41.0896	137.446	10.904	126.033	40.1351	50.1741
380751	30.6562	141.389	48.0932	133.263	11.6475	100.203	43.4132	91.7807	55.5734	72.6303	41.219	137.731	10.9684	126.279	40.287	49.9141
380752	30.7509	141.658	48.2484	133.557	11.8372	100.369	43.6631	91.7944	55.8068	72.4712	41.3477	138.016	11.0327	126.525	40.4384	49.6528
380753	30.845	141.928	48.4029	133.853	12.0269	100.536	43.913	91.8083	56.0401	72.3103	41.4757	138.302	11.0968	126.771	40.5892	49.3905
380754	30.9386	142.198	48.5566	134.15	12.2164	100.702	44.1628	91.8224	56.2731	72.1475	41.6029	138.59	11.1606	127.017	40.7394	49.1269
380755	31.0316	142.469	48.7095	134.45	12.4059	100.87	44.4127	91.8365	56.5059	71.9826	41.7295	138.879	11.2242	127.264	40.889	48.8621
380756	31.124	142.74	48.8616	134.751	12.5952	101.037	44.6625	91.8508	56.7385	71.8158	41.8553	139.168	11.2877	127.511	41.038	48.5962
380757	31.2159	143.012	49.0129	135.054	12.7844	101.204	44.9124	91.8652	56.9709	71.6468	41.9804	139.459	11.3509	127.757	41.1864	48.329
380758	31.3072	143.284	49.1635	135.359	12.9735	101.372	45.1622	91.8798	57.203	71.4758	42.1047	139.752	11.4139	128.004	41.3341	48.0607
380759	31.3979	143.557	49.3132	135.666	13.1626	101.54	45.4121	91.8945	57.4349	71.3026	42.2283	140.045	11.4767	128.251	41.4813	47.7911
380760	31.488	143.831	49.4621	135.974	13.3514	101.709	45.6619	91.9093	57.6666	71.1272	42.3511	140.339	11.5393	128.498	41.6278	47.5203
380761	31.5775	144.104	49.6101	136.285	13.5402	101.877	45.9117	91.9243	57.898	70.9496	42.4732	140.635	11.6016	128.745	41.7737	47.2483
380762	31.6664	144.379	49.7573	136.597	13.7289	102.046	46.1616	91.9394	58.1292	70.7697	42.5945	140.932	11.6638	128.993	41.919	46.9751
380763	31.7548	144.654	49.9037	136.911	13.9174	102.215	46.4114	91.9547	58.3601	70.5874	42.715	141.23	11.7257	129.24	42.0636	46.7006
380764	31.8425	144.929	50.0492	137.228	14.1059	102.385	46.6613	91.9701	58.5908	70.4028	42.8347	141.529	11.7874	129.488	42.2075	46.4249
380765	31.9296	145.205	50.1938	137.546	14.2942	102.554	46.9111	91.9857	58.8212	70.2157	42.9537	141.829	11.8489	129.735	42.3508	46.1479
380766	32.0162	145.482	50.3376	137.866	14.4823	102.724	47.1609	92.0014	59.0514	70.0261	43.0718	142.13	11.9102	129.983	42.4935	45.8697
380767	32.1021	145.759	50.4805	138.188	14.6704	102.895	47.4107	92.0173	59.2812	69.834	43.1892	142.433	11.9712	130.231	42.6354	45.5902
380768	32.1874	146.037	50.6224	138.512	14.8583	103.065	47.6606	92.0333	59.5108	69.6393	43.3057	142.737	12.0321	130.479	42.7767	45.3094
380769	32.2721	146.315	50.7635	138.838	15.0461	103.236	47.9104	92.0495	59.7401	69.442	43.4215	143.042	12.0927	130.727	42.9173	45.0274
380770	32.3562	146.593	50.9036	139.166	15.2338	103.407	48.1602	92.0659	59.9691	69.2419	43.5364	143.348	12.1531	130.975	43.0572	44.7441
380771	32.4397	146.873	51.0428	139.496	15.4213	103.579	48.41	92.0824	60.1977	69.0391	43.6505	143.655	12.2132	131.223	43.1964	44.4595
380772	32.5225	147.152	51.1811	139.828	15.6087	103.751	48.6598	92.0992	60.4261	68.8334	43.7638	143.963	12.2731	131.472	43.335	44.1736
380773	32.6047	147.433	51.3184	140.161	15.7959	103.923	48.9096	92.1161	60.6542	68.6248	43.8762	144.273	12.3328	131.72	43.4728	43.8864
380774	32.6863	147.713	51.4547	140.497	15.983	104.095	49.1594	92.1332	60.8819	68.4133	43.9877	144.584	12.3923	131.969	43.6099	43.5979
380775	32.7672	147.994	51.5901	140.835	16.17	104.268	49.4093	92.1504	61.1093	68.1987	44.0985	144.895	12.4515	132.218	43.7462	43.308
380776	32.8476	148.276	51.7245	141.175	16.3568	104.441	49.6591	92.1679	61.3363	67.9811	44.2083	145.208	12.5105	132.467	43.8819	43.0169
380777	32.9272	148.559	51.8579	141.517	16.5435	104.615	49.9089	92.1855	61.563	67.7603	44.3173	145.523	12.5692	132.716	44.0168	42.7245
380778	33.0063	148.841	51.9903	141.861	16.73	104.789	50.1587	92.2034	61.7894	67.5363	44.4255	145.838	12.6277	132.965	44.1509	42.4307
380779	33.0847	149.125	52.1217	142.207	16.9164	104.963	50.4085	92.2214	62.0153	67.3089	44.5327	146.155	12.686	133.214	44.2843	42.1356
380780	33.1624	149.408	52.2521	142.555	17.1027	105.137	50.6582	92.2396	62.2409	67.0782	44.6391	146.473	12.744	133.463	44.417	41.8392
380781	33.2395	149.693	52.3814	142.905	17.2887	105.312	50.908	92.2581	62.4661	66.844	44.7445	146.792	12.8018	133.713	44.5489	41.5414
380782	33.3159	149.977	52.5097	143.257	17.4747	105.487	51.1578	92.2767	62.691	66.6063	44.8491	147.112	12.8594	133.962	44.68	41.2423
380783	33.3917	150.263	52.6369	143.612	17.6604	105.663	51.4076	92.2956	62.9154	66.3649	44.9528	147.433	12.9167	134.212	44.8103	40.9418
380784	33.4668	150.548	52.7631	143.968	17.846	105.839	51.6574	92.3147	63.1394	66.1198	45.0556	147.755	12.9738	134.462	44.9399	40.64
380785	33.5412	150.835	52.8882	144.326	18.0314	106.015	51.9071	92.334	63.3629	65.871	45.1574	148.079	13.0306	134.712	45.0686	40.3368
380786	33.615	151.121	53.0122	144.687	18.2167	106.192	52.1569	92.3535	63.5861	65.6182	45.2583	148.404	13.0872	134.962	45.1966	40.0323
380787	33.6881	151.409	53.135	145.049	18.4018	106.369	52.4067	92.3733	63.8088	65.3615	45.3583	148.73	13.1435	135.212	45.3237	39.7264
380788	33.7606	151.697	53.2568	145.414	18.5868	106.547	52.6564	92.3933	64.031	65.1007	45.4574	149.056	13.1996	135.462	45.4501	39.4191
380789	33.8323	151.985	53.3775	145.78	18.7716	106.724	52.9062	92.4135	64.2527	64.8358	45.5555	149.385	13.2554	135.713	45.5756	39.1105
380790	33.9034	152.274	53.497	146.149	18.9561	106.903	53.1559	92.434	64.474	64.5665	45.6527	149.714	13.311	135.963	45.7003	38.8005
380791	33.9738	152.563	53.6153	146.52	19.1406	107.081	53.4057	92.4548	64.6948	64.2929	45.7489	150.044	13.3663	136.214	45.8241	38.4891
380792	34.0435	152.852	53.7325	146.893	19.3248	107.26	53.6554	92.4758	64.915	64.0149	45.8441	150.376	13.4214	136.465	45.9472	38.1763
380793	34.1126	153.143	53.8486	147.268	19.5089	107.44	53.9052	92.497	65.1348	63.7322	45.9384	150.709	13.4762	136.715	46.0693	37.8622
380794	34.1809	153.433	53.9634	147.645	19.6928	107.62	54.1549	92.5185	65.354	63.4449	46.0317	151.043	13.5308	136.966	46.1906	37.5467
380795	34.2486	153.724	54.0771	148.024	19.8765	107.8	54.4047	92.5403	65.5726	63.1527	46.124	151.378	13.5851	137.218	46.311	37.2298
380796	34.3155	154.016	54.1895	148.405	20.06	107.981	54.6544	92.5624	65.7907	62.8556	46.2153	151.714	13.6392	137.469	46.4306	36.9115
380797	34.3818	154.308	54.3008	148.788	20.2433	108.162	54.9041	92.5848	66.0082	62.5535	46.3057	152.051	13.693	137.72	46.5493	36.5918
380798	34.4473	154.601	54.4108	149.174	20.4264	108.344	55.1538	92.6074	66.2251	62.2461	46.395	152.389	13.7465	137.971	46.6671	36.2707
380799	34.5121	154.893	54.5196	149.561	20.6094	108.525	55.4036	92.6304	66.4414	61.9335	46.4833	152.729	13.7998	138.223	46.784	35.9482
380800	34.5763	155.187	54.6271	149.951	20.7921	108.708	55.6533	92.6536	66.6571	61.6155	46.5706	153.07	13.8528	138.475	46.9	35.6244
380801	34.6397	155.481	54.7333	150.342	20.9747	108.891	55.903	92.6772	66.8721	61.2918	46.6569	153.411	13.9055	138.726	47.0151	35.2991
380802	34.7024	155.775	54.8383	150.736	21.157	109.074	56.1527	92.7011	67.0864	60.9625	46.7422	153.754	13.958	138.978	47.1292	34.9724
380803	34.7644	156.07	54.942	151.131	21.3392	109.258	56.4024	92.7253	67.3001	60.6273	46.8264	154.098	14.0102	139.23	47.2425	34.6444
380804	34.8257	156.365	55.0444	151.529	21.5211	109.442	56.6521	92.7499	67.513	60.2861	46.9096	154.443	14.0622	139.482	47.3548	34.315
380805	34.8863	156.661	55.1455	151.929	21.7028	109.627	56.9017	92.7747	67.7253	59.9387	46.9918	154.789	14.1138	139.735	47.4661	33.9841
380806	34.9461	156.957	55.2452	152.331	21.8844	109.812	57.1514	92.8	67.9367	59.5851	47.0728	155.136	14.1653	139.987	47.5765	33.6519
380807	35.0052	157.253	55.3437	152.734	22.0657	109.998	57.4011	92.8256	68.1474	59.2249	47.1529	155.484	14.2164	140.24	47.686	33.3183
380808	35.0636	157.55	55.4408	153.14	22.2468	110.184	57.6508	92.8515	68.3573	58.8581	47.2318	155.833	14.2673	140.492	47.7945	32.9832
380809	35.1212	157.848	55.5365	153.548	22.4277	110.371	57.9004	92.8778	68.5664	58.4845	47.3097	156.183	14.3179	140.745	47.902	32.6468
380810	35.1782	158.145	55.6309	153.957	22.6083	110.558	58.1501	92.9045	68.7747	58.104	47.3866	156.535	14.3682	140.998	48.0086	32.309
380811	35.2343	158.444	55.7238	154.369	22.7888	110.746	58.3997	92.9316	68.9821	57.7163	47.4623	156.887	14.4182	141.251	48.1141	31.9699
380812	35.2898	158.742	55.8154	154.783	22.969	110.934	58.6494	92.9591	69.1885	57.3212	47.5369	157.24	14.468	141.504	48.2187	31.6293
380813	35.3445	159.041	55.9056	155.198	23.149	111.123	58.899	92.987	69.3941	56.9186	47.6105	157.594	14.5175	141.757	48.3222	31.2873
380814	35.3984	159.341	55.9944	155.616	23.3287	111.312	59.1487	93.0154	69.5987	56.5083	47.6829	157.95	14.5667	142.01	48.4248	30.944
380815	35.4516	159.641	56.0818	156.035	23.5083	111.501	59.3983	93.0441	69.8024	56.09	47.7543	158.306	14.6156	142.263	48.5263	30.5993
380816	35.5041	159.941	56.1677	156.457	23.6875	111.692	59.6479	93.0733	70.0051	55.6637	47.8245	158.663	14.6643	142.517	48.6268	30.2532
380817	35.5558	160.242	56.2522	156.88	23.8666	111.882	59.8975	93.103	70.2067	55.229	47.8936	159.021	14.7127	142.771	48.7263	29.9058
380818	35.6067	160.543	56.3352	157.305	24.0454	112.074	60.1471	93.1331	70.4072	54.7858	47.9616	159.38	14.7607	143.024	48.8247	29.557
380819	35.6569	160.844	56.4168	157.732	24.224	112.266	60.3967	93.1637	70.6067	54.3338	48.0285	159.74	14.8086	143.278	48.922	29.2068
380820	35.7063	161.146	56.4968	158.16	24.4023	112.458	60.6463	93.1947	70.805	53.8728	48.0942	160.101	14.8561	143.532	49.0183	28.8552
380821	35.755	161.448	56.5754	158.591	24.5804	112.651	60.8959	93.2263	71.0021	53.4026	48.1588	160.463	14.9033	143.786	49.1136	28.5023
380822	35.8029	161.75	56.6525	159.023	24.7582	112.844	61.1455	93.2584	71.1981	52.9229	48.2223	160.826	14.9503	144.041	49.2078	28.1481
380823	35.8501	162.053	56.7281	159.457	24.9358	113.038	61.395	93.291	71.3928	52.4336	48.2845	161.19	14.9969	144.295	49.3009	27.7925
380824	35.8964	162.357	56.8021	159.893	25.1131	113.233	61.6446	93.3242	71.5862	51.9344	48.3457	161.554	15.0433	144.549	49.3929	27.4356
380825	35.942	162.66	56.8747	160.331	25.2902	113.428	61.8941	93.3579	71.7783	51.4249	48.4056	161.92	15.0894	144.804	49.4838	27.0774
380826	35.9868	162.964	56.9456	160.77	25.467	113.624	62.1437	93.3922	71.969	50.9051	48.4644	162.286	15.1351	145.058	49.5736	26.7178
380827	36.0309	163.268	57.0151	161.21	25.6435	113.82	62.3932	93.427	72.1583	50.3746	48.5221	162.653	15.1806	145.313	49.6623	26.357
380828	36.0742	163.573	57.0829	161.653	25.8197	114.017	62.6427	93.4625	72.3461	49.8331	48.5785	163.021	15.2258	145.568	49.7499	25.9948
380829	36.1167	163.878	57.1492	162.097	25.9957	114.214	62.8922	93.4985	72.5325	49.2804	48.6338	163.39	15.2708	145.823	49.8363	25.6314
380830	36.1584	164.183	57.2139	162.543	26.1715	114.412	63.1418	93.5353	72.7173	48.7162	48.6879	163.76	15.3154	146.078	49.9216	25.2666
380831	36.1993	164.489	57.277	162.99	26.3469	114.611	63.3912	93.5726	72.9004	48.1403	48.7408	164.13	15.3597	146.333	50.0058	24.9005
380832	36.2395	164.795	57.3386	163.439	26.5221	114.811	63.6407	93.6107	73.082	47.5524	48.7925	164.501	15.4037	146.589	50.0889	24.5332
380833	36.2788	165.101	57.3985	163.889	26.6969	115.01	63.8902	93.6494	73.2618	46.9522	48.843	164.873	15.4474	146.844	50.1707	24.1647
380834	36.3174	165.408	57.4568	164.341	26.8715	115.211	64.1397	93.6888	73.4398	46.3394	48.8922	165.246	15.4909	147.099	50.2514	23.7948
380835	36.3552	165.714	57.5134	164.794	27.0458	115.412	64.3891	93.729	73.6161	45.7137	48.9403	165.619	15.534	147.355	50.331	23.4238
380836	36.3922	166.022	57.5684	165.248	27.2199	115.614	64.6385	93.7699	73.7904	45.0749	48.9872	165.994	15.5768	147.611	50.4093	23.0515
380837	36.4284	166.329	57.6218	165.704	27.3936	115.816	64.888	93.8116	73.9628	44.4227	49.0328	166.368	15.6193	147.867	50.4865	22.6779
380838	36.4638	166.637	57.6736	166.161	27.567	116.019	65.1374	93.8541	74.1332	43.7567	49.0772	166.744	15.6615	148.123	50.5625	22.3032
380839	36.4984	166.945	57.7236	166.62	27.7401	116.223	65.3868	93.8975	74.3015	43.0768	49.1204	167.12	15.7035	148.379	50.6373	21.9273
380840	36.5322	167.253	57.7721	167.079	27.9129	116.427	65.6362	93.9416	74.4677	42.3827	49.1624	167.497	15.7451	148.635	50.7109	21.5502
380841	36.5652	167.562	57.8188	167.54	28.0854	116.632	65.8855	93.9867	74.6317	41.674	49.2031	167.874	15.7864	148.891	50.7832	21.1719
380842	36.5974	167.87	57.8638	168.002	28.2576	116.838	66.1349	94.0326	74.7934	40.9505	49.2426	168.252	15.8273	149.147	50.8544	20.7924
380843	36.6288	168.179	57.9072	168.466	28.4295	117.044	66.3842	94.0795	74.9527	40.212	49.2808	168.631	15.868	149.404	50.9243	20.4119
380844	36.6594	168.489	57.9488	168.93	28.6011	117.251	66.6336	94.1273	75.1096	39.4582	49.3178	169.01	15.9084	149.661	50.993	20.0301
380845	36.6891	168.798	57.9888	169.395	28.7723	117.459	66.8829	94.1762	75.264	38.6888	49.3535	169.39	15.9485	149.917	51.0604	19.6473
380846	36.7181	169.108	58.027	169.862	28.9432	117.668	67.1322	94.226	75.4158	37.9037	49.388	169.77	15.9882	150.174	51.1266	19.2633
380847	36.7463	169.418	58.0635	170.329	29.1138	117.877	67.3815	94.2769	75.565	37.1026	49.4213	170.151	16.0277	150.431	51.1916	18.8783
380848	36.7736	169.728	58.0984	170.798	29.2841	118.087	67.6307	94.3289	75.7114	36.2852	49.4532	170.533	16.0668	150.688	51.2552	18.4922
380849	36.8001	170.039	58.1314	171.267	29.454	118.297	67.88	94.3821	75.8549	35.4515	49.484	170.915	16.1056	150.945	51.3177	18.105
380850	36.8259	170.35	58.1628	171.737	29.6237	118.508	68.1292	94.4364	75.9955	34.6013	49.5134	171.297	16.1441	151.202	51.3788	17.7168
380851	36.8507	170.66	58.1924	172.208	29.7929	118.72	68.3784	94.4919	76.1332	33.7343	49.5416	171.68	16.1823	151.459	51.4387	17.3276
380852	36.8748	170.971	58.2202	172.679	29.9618	118.933	68.6276	94.5486	76.2677	32.8505	49.5685	172.063	16.2202	151.717	51.4973	16.9374
380853	36.8981	171.283	58.2463	173.152	30.1304	119.146	68.8768	94.6067	76.399	31.9498	49.5941	172.446	16.2577	151.974	51.5545	16.5462
380854	36.9205	171.594	58.2707	173.625	30.2986	119.36	69.1259	94.6661	76.527	31.0321	49.6185	172.831	16.295	152.232	51.6105	16.1539
380855	36.9422	171.906	58.2933	174.099	30.4664	119.575	69.3751	94.7269	76.6516	30.0974	49.6415	173.215	16.3319	152.49	51.6652	15.7608
380856	36.963	172.218	58.3141	174.573	30.6339	119.791	69.6242	94.7892	76.7728	29.1456	49.6633	173.6	16.3685	152.747	51.7186	15.3667
380857	36.9829	172.53	58.3332	175.048	30.8011	120.007	69.8732	94.8529	76.8903	28.1769	49.6838	173.985	16.4047	153.005	51.7707	14.9717
380858	37.0021	172.842	58.3505	175.523	30.9679	120.224	70.1223	94.9182	77.0042	27.1912	49.703	174.37	16.4407	153.263	51.8214	14.5758
380859	37.0204	173.154	58.3661	175.999	31.1343	120.442	70.3714	94.9851	77.1143	26.1887	49.721	174.756	16.4763	153.521	51.8708	14.179
380860	37.0379	173.467	58.3798	176.475	31.3003	120.661	70.6204	95.0536	77.2206	25.1695	49.7376	175.142	16.5116	153.78	51.9189	13.7813
380861	37.0546	173.779	58.3918	176.951	31.4659	120.88	70.8693	95.1239	77.3229	24.1338	49.753	175.528	16.5466	154.038	51.9657	13.3829
380862	37.0704	174.092	58.402	177.428	31.6312	121.1	71.1183	95.196	77.4211	23.0819	49.767	175.915	16.5813	154.296	52.0111	12.9836
380863	37.0855	174.405	58.4104	177.905	31.7961	121.321	71.3672	95.27	77.5151	22.0141	49.7798	176.301	16.6156	154.555	52.0552	12.5835
380864	37.0996	174.718	58.4171	178.382	31.9606	121.543	71.6161	95.346	77.6049	20.9307	49.7913	176.688	16.6496	154.813	52.0979	12.1826
380865	37.113	175.031	58.422	178.86	32.1247	121.766	71.865	95.4239	77.6904	19.8321	49.8015	177.075	16.6833	155.072	52.1393	11.781
380866	37.1255	175.344	58.425	179.337	32.2884	121.989	72.1138	95.504	77.7714	18.7189	49.8103	177.463	16.7167	155.331	52.1793	11.3786
380867	37.1372	175.657	58.4263	179.815	32.4517	122.213	72.3626	95.5863	77.8479	17.5914	49.8179	177.85	16.7497	155.589	52.2179	10.9755
380868	37.1481	175.971	58.4259	180.292	32.6146	122.438	72.6114	95.671	77.9198	16.4503	49.8242	178.237	16.7824	155.848	52.2552	10.5718
380869	37.1581	176.284	58.4236	180.77	32.7771	122.664	72.8601	95.758	77.9869	15.2962	49.8292	178.625	16.8147	156.107	52.2911	10.1674
380870	37.1673	176.598	58.4196	181.248	32.9392	122.891	73.1088	95.8475	78.0493	14.1298	49.8329	179.012	16.8468	156.366	52.3257	9.76228
380871	37.1757	176.912	58.4137	181.725	33.1009	123.118	73.3574	95.9396	78.1069	12.9518	49.8353	179.4	16.8785	156.626	52.3588	9.3566
380872	37.1832	177.225	58.4061	182.202	33.2622	123.347	73.606	96.0345	78.1595	11.763	49.8363	179.788	16.9098	156.885	52.3906	8.95032
380873	37.1899	177.539	58.3967	182.679	33.423	123.576	73.8545	96.1323	78.2071	10.5642	49.8361	180.175	16.9408	157.144	52.4209	8.54347
380874	37.1957	177.853	58.3856	183.155	33.5834	123.806	74.103	96.233	78.2497	9.35639	49.8346	180.563	16.9715	157.404	52.4499	8.13607
380875	37.2008	178.167	58.3726	183.632	33.7434	124.037	74.3515	96.3369	78.2872	8.14043	49.8318	180.951	17.0019	157.663	52.4775	7.72815
380876	37.2049	178.481	58.3579	184.108	33.9029	124.269	74.5999	96.4441	78.3195	6.91732	49.8277	181.339	17.0319	157.923	52.5037	7.31973
380877	37.2083	178.794	58.3414	184.583	34.062	124.501	74.8483	96.5547	78.3467	5.68804	49.8222	181.726	17.0616	158.183	52.5285	6.91085
380878	37.2108	179.108	58.3231	185.058	34.2206	124.735	75.0966	96.669	78.3686	4.45367	49.8155	182.113	17.0909	158.442	52.5519	6.50151
380879	37.2125	179.423	58.3031	185.533	34.3788	124.969	75.3448	96.7871	78.3852	3.21525	49.8075	182.501	17.12	158.702	52.5739	6.09175
380880	37.2133	179.737	58.2813	186.007	34.5366	125.205	75.593	96.9092	78.3966	1.9739	49.7982	182.888	17.1486	158.962	52.5945	5.68159
380881	37.2133	180.05	58.2578	186.48	34.6939	125.441	75.8411	97.0355	78.4026	0.730702	49.7876	183.275	17.177	159.222	52.6136	5.27106
380882	37.2125	180.364	58.2325	186.953	34.8507	125.678	76.0891	97.1663	78.4034	359.487	49.7757	183.662	17.205	159.482	52.6314	4.86019
380883	37.2108	180.678	58.2054	187.425	35.007	125.916	76.3371	97.3017	78.3988	358.243	49.7625	184.048	17.2326	159.742	52.6478	4.449
380884	37.2083	180.992	58.1766	187.896	35.1629	126.155	76.585	97.442	78.3889	357.001	49.748	184.435	17.2599	160.003	52.6627	4.03751
380885	37.205	181.306	58.1461	188.367	35.3183	126.395	76.8328	97.5876	78.3738	355.762	49.7322	184.821	17.2869	160.263	52.6762	3.62576
380886	37.2008	181.62	58.1138	188.836	35.4732	126.635	77.0805	97.7387	78.3533	354.526	49.7151	185.207	17.3135	160.523	52.6883	3.21376
380887	37.1958	181.934	58.0798	189.305	35.6277	126.877	77.3281	97.8957	78.3277	353.296	49.6967	185.592	17.3398	160.784	52.6989	2.80156
380888	37.1899	182.248	58.0441	189.773	35.7816	127.12	77.5757	98.0588	78.2968	352.071	49.6771	185.978	17.3657	161.044	52.7082	2.38916
380889	37.1833	182.562	58.0066	190.24	35.9351	127.364	77.8231	98.2285	78.2608	350.853	49.6561	186.363	17.3913	161.305	52.716	1.9766
380890	37.1757	182.875	57.9674	190.706	36.088	127.608	78.0704	98.4052	78.2196	349.642	49.6339	186.747	17.4166	161.566	52.7224	1.56391
380891	37.1674	183.189	57.9266	191.17	36.2405	127.854	78.3176	98.5892	78.1734	348.441	49.6104	187.132	17.4415	161.827	52.7274	1.15112
380892	37.1582	183.502	57.884	191.634	36.3924	128.1	78.5647	98.7812	78.1221	347.249	49.5856	187.516	17.466	162.088	52.7309	0.738239
380893	37.1482	183.816	57.8397	192.097	36.5439	128.347	78.8117	98.9815	78.066	346.068	49.5596	187.899	17.4902	162.348	52.733	0.325308
380894	37.1373	184.129	57.7938	192.558	36.6948	128.596	79.0585	99.1908	78.0049	344.899	49.5322	188.282	17.5141	162.609	52.7337	359.913
380895	37.1256	184.443	57.7461	193.018	36.8452	128.845	79.3051	99.4097	77.9391	343.741	49.5036	188.665	17.5376	162.87	52.733	359.5
380896	37.1131	184.756	57.6968	193.477	36.995	129.096	79.5516	99.6388	77.8685	342.596	49.4738	189.047	17.5608	163.132	52.7308	359.087
380897	37.0998	185.069	57.6459	193.935	37.1443	129.347	79.798	99.8789	77.7933	341.465	49.4426	189.429	17.5836	163.393	52.7272	358.674
380898	37.0856	185.382	57.5932	194.392	37.2931	129.6	80.0441	100.131	77.7136	340.347	49.4102	189.81	17.606	163.654	52.7222	358.261
380899	37.0706	185.695	57.5389	194.847	37.4414	129.853	80.29	100.395	77.6294	339.245	49.3766	190.191	17.6281	163.915	52.7158	357.848
380900	37.0547	186.008	57.483	195.301	37.5891	130.107	80.5358	100.674	77.5408	338.157	49.3416	190.571	17.6499	164.177	52.7079	357.436
380901	37.038	186.32	57.4255	195.753	37.7362	130.363	80.7813	100.967	77.4479	337.085	49.3055	190.95	17.6713	164.438	52.6986	357.023
380902	37.0206	186.633	57.3663	196.204	37.8828	130.619	81.0265	101.275	77.3508	336.028	49.2681	191.329	17.6924	164.7	52.6879	356.611
380903	37.0022	186.945	57.3055	196.653	38.0288	130.877	81.2715	101.602	77.2497	334.988	49.2294	191.708	17.7131	164.961	52.6758	356.199
380904	36.9831	187.257	57.2431	197.101	38.1742	131.135	81.5161	101.947	77.1445	333.964	49.1895	192.086	17.7334	165.223	52.6622	355.787
380905	36.9631	187.569	57.1791	197.548	38.3191	131.395	81.7605	102.312	77.0355	332.957	49.1483	192.463	17.7534	165.485	52.6473	355.376
380906	36.9423	187.881	57.1136	197.992	38.4634	131.655	82.0045	102.699	76.9227	331.967	49.106	192.84	17.773	165.746	52.6309	354.965
380907	36.9207	188.193	57.0464	198.436	38.6071	131.917	82.2481	103.111	76.8061	330.993	49.0624	193.215	17.7923	166.008	52.6131	354.554
380908	36.8983	188.504	56.9777	198.877	38.7502	132.179	82.4913	103.549	76.686	330.036	49.0175	193.591	17.8112	166.27	52.5939	354.143
380909	36.875	188.815	56.9074	199.317	38.8928	132.443	82.734	104.016	76.5623	329.097	48.9715	193.965	17.8298	166.532	52.5732	353.733
380910	36.8509	189.126	56.8356	199.755	39.0347	132.708	82.9763	104.516	76.4352	328.175	48.9242	194.339	17.848	166.794	52.5512	353.323
380911	36.826	189.437	56.7623	200.192	39.176	132.974	83.2179	105.051	76.3049	327.269	48.8757	194.712	17.8659	167.056	52.5278	352.914
380912	36.8003	189.748	56.6874	200.627	39.3167	133.241	83.4589	105.626	76.1712	326.38	48.826	195.085	17.8834	167.318	52.5029	352.505
380913	36.7738	190.059	56.611	201.06	39.4568	133.509	83.6992	106.244	76.0345	325.509	48.7751	195.457	17.9005	167.58	52.4767	352.097
380914	36.7464	190.369	56.5331	201.491	39.5962	133.778	83.9388	106.911	75.8947	324.654	48.723	195.827	17.9173	167.843	52.449	351.689
380915	36.7183	190.679	56.4537	201.921	39.7351	134.048	84.1774	107.633	75.752	323.816	48.6697	196.198	17.9337	168.105	52.42	351.281
380916	36.6893	190.989	56.3728	202.349	39.8733	134.319	84.415	108.416	75.6064	322.994	48.6152	196.567	17.9498	168.367	52.3896	350.875
380917	36.6595	191.298	56.2904	202.774	40.0108	134.592	84.6516	109.268	75.458	322.188	48.5595	196.935	17.9655	168.63	52.3578	350.469
380918	36.629	191.607	56.2066	203.198	40.1477	134.865	84.8868	110.199	75.3069	321.398	48.5027	197.303	17.9809	168.892	52.3246	350.063
380919	36.5976	191.917	56.1213	203.621	40.284	135.14	85.1205	111.219	75.1533	320.625	48.4446	197.67	17.9958	169.154	52.29	349.658
380920	36.5654	192.225	56.0346	204.041	40.4196	135.415	85.3526	112.342	74.9971	319.866	48.3854	198.036	18.0105	169.417	52.2541	349.253
380921	36.5324	192.534	55.9465	204.459	40.5545	135.692	85.5827	113.581	74.8384	319.124	48.325	198.401	18.0247	169.679	52.2168	348.85
380922	36.4986	192.842	55.8569	204.876	40.6888	135.97	85.8105	114.956	74.6774	318.396	48.2635	198.766	18.0386	169.942	52.1781	348.447
380923	36.464	193.15	55.766	205.29	40.8224	136.249	86.0356	116.488	74.514	317.683	48.2008	199.129	18.0522	170.204	52.138	348.044
380924	36.4286	193.458	55.6736	205.703	40.9553	136.529	86.2575	118.203	74.3485	316.985	48.137	199.492	18.0654	170.467	52.0966	347.643
380925	36.3924	193.765	55.5799	206.113	41.0875	136.811	86.4757	120.131	74.1808	316.301	48.072	199.853	18.0782	170.73	52.0539	347.242
380926	36.3554	194.072	55.4847	206.522	41.2191	137.093	86.6894	122.311	74.0109	315.631	48.0059	200.214	18.0906	170.993	52.0098	346.842
380927	36.3176	194.379	55.3883	206.929	41.3499	137.377	86.8976	124.788	73.8391	314.975	47.9386	200.573	18.1027	171.255	51.9643	346.442
380928	36.279	194.686	55.2904	207.333	41.48	137.661	87.0993	127.614	73.6653	314.332	47.8702	200.932	18.1144	171.518	51.9175	346.044
380929	36.2396	194.992	55.1913	207.736	41.6094	137.947	87.2928	130.853	73.4896	313.703	47.8007	201.29	18.1258	171.781	51.8694	345.646
380930	36.1995	195.298	55.0908	208.137	41.7381	138.234	87.4764	134.577	73.3121	313.087	47.7301	201.647	18.1368	172.044	51.8199	345.25
380931	36.1585	195.604	54.989	208.535	41.8661	138.523	87.6477	138.863	73.1327	312.483	47.6584	202.003	18.1474	172.307	51.7692	344.854
380932	36.1168	195.909	54.8858	208.932	41.9934	138.812	87.8038	143.789	72.9517	311.892	47.5855	202.358	18.1577	172.57	51.7171	344.459
380933	36.0743	196.214	54.7814	209.326	42.1199	139.102	87.9414	149.42	72.769	311.312	47.5116	202.712	18.1676	172.833	51.6636	344.065
380934	36.031	196.518	54.6758	209.719	42.2456	139.394	88.0563	155.785	72.5846	310.745	47.4366	203.065	18.1772	173.096	51.6089	343.671
380935	35.987	196.823	54.5688	210.109	42.3707	139.687	88.1445	162.85	72.3987	310.189	47.3604	203.417	18.1863	173.359	51.5529	343.279
380936	35.9421	197.127	54.4606	210.497	42.4949	139.981	88.202	170.491	72.2113	309.644	47.2832	203.767	18.1951	173.622	51.4956	342.888
380937	35.8965	197.43	54.3511	210.884	42.6184	140.276	88.2258	178.484	72.0224	309.111	47.205	204.117	18.2036	173.885	51.437	342.498
380938	35.8501	197.734	54.2404	211.268	42.7412	140.572	88.2146	186.534	71.8321	308.588	47.1256	204.466	18.2117	174.148	51.377	342.109
380939	35.803	198.036	54.1285	211.65	42.8631	140.87	88.1689	194.331	71.6404	308.075	47.0452	204.814	18.2194	174.411	51.3159	341.721
380940	35.7551	198.339	54.0154	212.03	42.9843	141.169	88.0913	201.623	71.4474	307.573	46.9637	205.16	18.2267	174.674	51.2534	341.333
380941	35.7064	198.641	53.9011	212.408	43.1047	141.469	87.9855	208.248	71.2531	307.081	46.8812	205.506	18.2337	174.937	51.1897	340.947
380942	35.657	198.943	53.7856	212.784	43.2243	141.77	87.8556	214.142	71.0575	306.599	46.7977	205.851	18.2403	175.201	51.1247	340.562
380943	35.6067	199.244	53.6689	213.158	43.3432	142.072	87.7057	219.315	70.8607	306.126	46.7131	206.194	18.2465	175.464	51.0585	340.178
380944	35.5558	199.545	53.551	213.529	43.4612	142.375	87.5395	223.823	70.6627	305.662	46.6274	206.536	18.2524	175.727	50.9911	339.796
380945	35.5041	199.846	53.432	213.899	43.5784	142.68	87.3601	227.74	70.4636	305.208	46.5408	206.878	18.2579	175.99	50.9223	339.414
380946	35.4516	200.146	53.3118	214.267	43.6947	142.986	87.1699	231.144	70.2634	304.762	46.4531	207.218	18.2631	176.253	50.8524	339.033
380947	35.3984	200.446	53.1906	214.632	43.8103	143.293	86.971	234.111	70.062	304.325	46.3644	207.557	18.2679	176.517	50.7812	338.654
380948	35.3444	200.745	53.0682	214.996	43.925	143.601	86.7649	236.707	69.8597	303.896	46.2747	207.895	18.2723	176.78	50.7088	338.276
380949	35.2897	201.044	52.9447	215.357	44.0389	143.91	86.5531	238.988	69.6563	303.476	46.184	208.232	18.2763	177.043	50.6352	337.899
380950	35.2343	201.343	52.8201	215.716	44.1519	144.221	86.3364	241.002	69.452	303.063	46.0923	208.567	18.28	177.307	50.5604	337.523
380951	35.1781	201.641	52.6944	216.073	44.2641	144.533	86.1158	242.79	69.2467	302.658	45.9997	208.902	18.2833	177.57	50.4844	337.148
380952	35.1211	201.939	52.5676	216.429	44.3754	144.846	85.8917	244.384	69.0404	302.261	45.906	209.236	18.2862	177.833	50.4072	336.774
380953	35.0635	202.236	52.4398	216.782	44.4859	145.16	85.6648	245.813	68.8333	301.871	45.8114	209.568	18.2888	178.097	50.3288	336.402
380954	35.0051	202.533	52.3109	217.133	44.5955	145.475	85.4355	247.099	68.6253	301.489	45.7158	209.899	18.291	178.36	50.2493	336.031
380955	34.9459	202.83	52.181	217.482	44.7042	145.792	85.2041	248.261	68.4165	301.113	45.6192	210.229	18.2928	178.623	50.1686	335.661
380956	34.8861	203.126	52.05	217.828	44.812	146.109	84.971	249.316	68.2068	300.745	45.5217	210.558	18.2943	178.887	50.0867	335.293
380957	34.8255	203.422	51.9181	218.173	44.919	146.428	84.7363	250.278	67.9963	300.382	45.4232	210.886	18.2954	179.15	50.0036	334.926
380958	34.7642	203.717	51.7851	218.516	45.025	146.748	84.5002	251.157	67.7851	300.027	45.3238	211.213	18.2961	179.413	49.9194	334.56
380959	34.7022	204.012	51.6511	218.857	45.1302	147.07	84.263	251.964	67.5731	299.678	45.2235	211.538	18.2965	179.677	49.8341	334.195
380960	34.6394	204.306	51.5161	219.196	45.2344	147.392	84.0246	252.707	67.3604	299.335	45.1222	211.862	18.2964	179.94	49.7476	333.831
380961	34.576	204.6	51.3802	219.532	45.3377	147.716	83.7854	253.393	67.1469	298.998	45.02	212.185	18.2961	180.204	49.66	333.469
380962	34.5118	204.893	51.2433	219.867	45.4401	148.041	83.5454	254.029	66.9328	298.667	44.9169	212.507	18.2953	180.467	49.5713	333.108
380963	34.4469	205.186	51.1054	220.2	45.5415	148.367	83.3046	254.618	66.718	298.341	44.8129	212.828	18.2942	180.73	49.4815	332.749
380964	34.3814	205.479	50.9666	220.531	45.6421	148.694	83.0632	255.167	66.5025	298.022	44.708	213.148	18.2927	180.994	49.3906	332.391
380965	34.3151	205.771	50.8269	220.859	45.7416	149.022	82.8212	255.679	66.2864	297.708	44.6022	213.466	18.2908	181.257	49.2986	332.034
380966	34.2481	206.062	50.6862	221.186	45.8402	149.352	82.5786	256.158	66.0697	297.399	44.4955	213.784	18.2886	181.52	49.2055	331.678
380967	34.1804	206.353	50.5446	221.511	45.9379	149.683	82.3356	256.606	65.8524	297.095	44.3879	214.1	18.286	181.784	49.1113	331.324
380968	34.1121	206.644	50.4021	221.834	46.0346	150.014	82.0921	257.027	65.6345	296.797	44.2794	214.415	18.2831	182.047	49.016	330.971
380969	34.043	206.934	50.2588	222.155	46.1304	150.347	81.8483	257.423	65.416	296.503	44.1701	214.729	18.2797	182.31	48.9197	330.62
380970	33.9732	207.224	50.1145	222.474	46.2251	150.682	81.604	257.796	65.197	296.214	44.0599	215.041	18.276	182.574	48.8223	330.269
380971	33.9028	207.513	49.9693	222.791	46.3189	151.017	81.3595	258.148	64.9774	295.93	43.9488	215.353	18.272	182.837	48.7239	329.921
380972	33.8317	207.802	49.8233	223.106	46.4117	151.353	81.1146	258.481	64.7573	295.651	43.8369	215.663	18.2675	183.1	48.6244	329.573
380973	33.7599	208.09	49.6765	223.419	46.5035	151.691	80.8695	258.795	64.5367	295.376	43.7242	215.972	18.2628	183.364	48.5239	329.227
380974	33.6874	208.378	49.5288	223.731	46.5942	152.03	80.624	259.094	64.3156	295.105	43.6106	216.28	18.2576	183.627	48.4224	328.882
380975	33.6143	208.665	49.3802	224.04	46.684	152.37	80.3784	259.377	64.094	294.839	43.4962	216.587	18.252	183.89	48.3199	328.539
380976	33.5404	208.952	49.2308	224.348	46.7728	152.711	80.1325	259.647	63.8719	294.577	43.3809	216.893	18.2461	184.153	48.2163	328.197
380977	33.4659	209.238	49.0806	224.653	46.8605	153.053	79.8865	259.903	63.6493	294.319	43.2649	217.197	18.2399	184.417	48.1118	327.857
380978	33.3908	209.524	48.9296	224.957	46.9472	153.396	79.6402	260.147	63.4263	294.065	43.148	217.5	18.2332	184.68	48.0062	327.517
380979	33.315	209.809	48.7778	225.259	47.0328	153.741	79.3937	260.38	63.2029	293.815	43.0304	217.803	18.2262	184.943	47.8997	327.18
380980	33.2385	210.094	48.6252	225.559	47.1175	154.086	79.1471	260.603	62.9791	293.569	42.9119	218.104	18.2189	185.206	47.7921	326.843
380981	33.1614	210.378	48.4719	225.858	47.201	154.433	78.9004	260.815	62.7548	293.327	42.7926	218.403	18.2111	185.469	47.6837	326.508
380982	33.0836	210.662	48.3177	226.154	47.2835	154.781	78.6535	261.019	62.5301	293.088	42.6726	218.702	18.203	185.732	47.5742	326.175
380983	33.0052	210.945	48.1628	226.449	47.365	155.129	78.4065	261.214	62.305	292.853	42.5517	219	18.1945	185.995	47.4638	325.842
380984	32.9261	211.228	48.0071	226.742	47.4454	155.479	78.1593	261.4	62.0795	292.621	42.4301	219.296	18.1857	186.258	47.3524	325.512
380985	32.8464	211.51	47.8507	227.033	47.5247	155.83	77.912	261.579	61.8537	292.392	42.3078	219.591	18.1765	186.521	47.2401	325.182
380986	32.766	211.792	47.6936	227.322	47.6029	156.182	77.6646	261.752	61.6275	292.167	42.1846	219.885	18.1669	186.784	47.1269	324.854
380987	32.685	212.073	47.5357	227.61	47.6801	156.535	77.4171	261.917	61.4009	291.945	42.0607	220.178	18.157	187.047	47.0127	324.528
380988	32.6034	212.354	47.3771	227.896	47.7561	156.889	77.1695	262.076	61.174	291.727	41.9361	220.47	18.1467	187.31	46.8977	324.202
380989	32.5211	212.634	47.2178	228.18	47.8311	157.244	76.9218	262.229	60.9467	291.511	41.8107	220.76	18.136	187.573	46.7817	323.878
380990	32.4382	212.914	47.0577	228.463	47.9049	157.601	76.6741	262.377	60.7191	291.299	41.6846	221.049	18.125	187.836	46.6648	323.556
380991	32.3547	213.193	46.897	228.743	47.9777	157.958	76.4262	262.519	60.4911	291.089	41.5578	221.338	18.1136	188.099	46.547	323.235
380992	32.2706	213.471	46.7356	229.023	48.0493	158.316	76.1783	262.656	60.2629	290.883	41.4302	221.625	18.1019	188.362	46.4284	322.915
380993	32.1859	213.749	46.5735	229.3	48.1198	158.675	75.9302	262.788	60.0343	290.679	41.3019	221.911	18.0897	188.624	46.3088	322.597
380994	32.1005	214.027	46.4108	229.576	48.1891	159.035	75.6822	262.916	59.8054	290.478	41.1729	222.196	18.0772	188.887	46.1884	322.28
380995	32.0145	214.304	46.2473	229.85	48.2574	159.396	75.434	263.04	59.5763	290.28	41.0432	222.48	18.0644	189.15	46.0671	321.965
380996	31.9279	214.581	46.0833	230.122	48.3245	159.758	75.1858	263.159	59.3468	290.084	40.9128	222.762	18.0512	189.412	45.945	321.65
380997	31.8407	214.857	45.9185	230.393	48.3904	160.121	74.9375	263.275	59.117	289.892	40.7817	223.044	18.0376	189.675	45.822	321.338
380998	31.7529	215.132	45.7531	230.662	48.4552	160.485	74.6892	263.387	58.887	289.701	40.6499	223.324	18.0237	189.938	45.6981	321.026
380999	31.6645	215.407	45.5871	230.93	48.5188	160.85	74.4408	263.495	58.6567	289.513	40.5174	223.603	18.0094	190.2	45.5735	320.716
381000	31.5755	215.681	45.4205	231.196	48.5813	161.216	74.1924	263.6	58.4261	289.328	40.3843	223.881	17.9947	190.463	45.448	320.408
381001	31.4859	215.955	45.2533	231.46	48.6426	161.582	73.9439	263.702	58.1953	289.145	40.2505	224.158	17.9797	190.725	45.3217	320.1
381002	31.3958	216.229	45.0854	231.723	48.7027	161.95	73.6953	263.801	57.9642	288.964	40.116	224.434	17.9643	190.987	45.1945	319.795
381003	31.305	216.502	44.9169	231.984	48.7617	162.318	73.4467	263.896	57.7328	288.786	39.9808	224.709	17.9486	191.25	45.0666	319.49
381004	31.2137	216.774	44.7478	232.244	48.8195	162.688	73.1981	263.99	57.5013	288.61	39.845	224.983	17.9325	191.512	44.9379	319.187
381005	31.1217	217.046	44.5782	232.502	48.876	163.058	72.9494	264.08	57.2694	288.436	39.7086	225.256	17.916	191.774	44.8083	318.885
381006	31.0292	217.317	44.4079	232.759	48.9314	163.429	72.7007	264.168	57.0374	288.264	39.5715	225.527	17.8992	192.036	44.678	318.584
381007	30.9362	217.588	44.2371	233.014	48.9856	163.801	72.452	264.253	56.8051	288.094	39.4338	225.798	17.882	192.299	44.547	318.285
381008	30.8425	217.858	44.0657	233.268	49.0386	164.173	72.2032	264.336	56.5726	287.927	39.2954	226.067	17.8645	192.561	44.4151	317.988
381009	30.7483	218.127	43.8937	233.521	49.0903	164.547	71.9544	264.417	56.3398	287.761	39.1564	226.335	17.8466	192.823	44.2825	317.691
381010	30.6535	218.397	43.7212	233.771	49.1409	164.921	71.7056	264.496	56.1069	287.598	39.0168	226.603	17.8284	193.085	44.1491	317.396
381011	30.5582	218.665	43.5481	234.021	49.1902	165.296	71.4567	264.572	55.8738	287.436	38.8766	226.869	17.8098	193.347	44.015	317.102
381012	30.4623	218.933	43.3745	234.269	49.2383	165.671	71.2078	264.647	55.6404	287.277	38.7358	227.134	17.7908	193.608	43.8801	316.81
381013	30.3658	219.201	43.2003	234.515	49.2852	166.048	70.9588	264.72	55.4068	287.119	38.5944	227.398	17.7715	193.87	43.7445	316.519
381014	30.2688	219.468	43.0257	234.76	49.3309	166.425	70.7098	264.791	55.1731	286.963	38.4523	227.661	17.7518	194.132	43.6082	316.229
381015	30.1713	219.734	42.8504	235.004	49.3753	166.803	70.4608	264.86	54.9391	286.809	38.3097	227.923	17.7318	194.394	43.4711	315.94
381016	30.0732	220	42.6747	235.246	49.4185	167.181	70.2118	264.927	54.705	286.656	38.1665	228.184	17.7114	194.655	43.3333	315.653
381017	29.9745	220.265	42.4985	235.487	49.4604	167.56	69.9628	264.993	54.4706	286.506	38.0227	228.444	17.6906	194.917	43.1949	315.367
381018	29.8754	220.53	42.3217	235.727	49.5011	167.94	69.7137	265.057	54.2361	286.357	37.8784	228.703	17.6695	195.179	43.0557	315.082
381019	29.7756	220.795	42.1444	235.965	49.5405	168.32	69.4646	265.12	54.0014	286.21	37.7334	228.961	17.6481	195.44	42.9158	314.799
381020	29.6754	221.058	41.9667	236.202	49.5787	168.701	69.2155	265.181	53.7666	286.064	37.5879	229.218	17.6263	195.701	42.7752	314.517
381021	29.5746	221.322	41.7884	236.437	49.6156	169.083	68.9663	265.241	53.5315	285.92	37.4419	229.474	17.6041	195.963	42.634	314.236
381022	29.4733	221.584	41.6097	236.672	49.6512	169.465	68.7172	265.299	53.2963	285.778	37.2952	229.729	17.5816	196.224	42.4921	313.957
381023	29.3715	221.847	41.4305	236.905	49.6856	169.848	68.468	265.356	53.061	285.637	37.1481	229.982	17.5588	196.485	42.3495	313.678
381024	29.2692	222.108	41.2508	237.136	49.7187	170.231	68.2188	265.412	52.8254	285.497	37.0003	230.235	17.5356	196.746	42.2062	313.401
381025	29.1663	222.369	41.0707	237.367	49.7506	170.614	67.9695	265.467	52.5897	285.36	36.8521	230.487	17.512	197.007	42.0623	313.126
381026	29.0629	222.63	40.8901	237.596	49.7811	170.999	67.7203	265.52	52.3539	285.223	36.7033	230.738	17.4881	197.268	41.9178	312.851
381027	28.959	222.89	40.709	237.823	49.8104	171.383	67.4711	265.573	52.1179	285.088	36.554	230.988	17.4639	197.529	41.7726	312.578
381028	28.8546	223.15	40.5275	238.05	49.8384	171.769	67.2218	265.624	51.8817	284.954	36.4041	231.237	17.4393	197.79	41.6267	312.306
381029	28.7498	223.409	40.3455	238.275	49.8651	172.154	66.9725	265.674	51.6454	284.822	36.2537	231.485	17.4143	198.051	41.4802	312.035
381030	28.6444	223.667	40.1631	238.499	49.8906	172.54	66.7232	265.723	51.409	284.692	36.1028	231.732	17.389	198.312	41.3332	311.765
381031	28.5385	223.925	39.9803	238.722	49.9147	172.927	66.4738	265.771	51.1724	284.562	35.9514	231.978	17.3634	198.572	41.1854	311.497
381032	28.4321	224.183	39.797	238.944	49.9376	173.314	66.2245	265.818	50.9357	284.434	35.7995	232.223	17.3374	198.833	41.0371	311.23
381033	28.3252	224.44	39.6133	239.165	49.9591	173.701	65.9751	265.865	50.6988	284.307	35.6471	232.467	17.3111	199.093	40.8882	310.964
381034	28.2178	224.696	39.4292	239.384	49.9794	174.088	65.7258	265.91	50.4619	284.181	35.4942	232.711	17.2844	199.354	40.7386	310.699
381035	28.11	224.952	39.2447	239.602	49.9983	174.476	65.4764	265.954	50.2247	284.057	35.3408	232.953	17.2574	199.614	40.5885	310.435
381036	28.0017	225.207	39.0597	239.819	50.016	174.864	65.227	265.998	49.9875	283.934	35.1869	233.194	17.23	199.874	40.4378	310.173
381037	27.8929	225.462	38.8744	240.035	50.0323	175.252	64.9776	266.041	49.7501	283.812	35.0325	233.435	17.2023	200.134	40.2864	309.912
381038	27.7836	225.717	38.6886	240.25	50.0474	175.641	64.7282	266.082	49.5126	283.691	34.8777	233.674	17.1742	200.394	40.1345	309.652
381039	27.6738	225.97	38.5025	240.463	50.0611	176.03	64.4787	266.124	49.275	283.571	34.7223	233.913	17.1458	200.655	39.9821	309.393
381040	27.5636	226.224	38.3159	240.676	50.0735	176.419	64.2293	266.164	49.0372	283.453	34.5665	234.151	17.1171	200.915	39.8291	309.135
381041	27.4529	226.476	38.129	240.887	50.0847	176.808	63.9798	266.204	48.7994	283.336	34.4103	234.388	17.0881	201.174	39.6755	308.878
381042	27.3417	226.729	37.9417	241.098	50.0945	177.198	63.7304	266.243	48.5614	283.219	34.2536	234.624	17.0587	201.434	39.5213	308.623
381043	27.2301	226.981	37.754	241.307	50.103	177.587	63.4809	266.281	48.3233	283.104	34.0964	234.859	17.0289	201.694	39.3666	308.368
381044	27.1181	227.232	37.5659	241.515	50.1101	177.977	63.2314	266.318	48.0851	282.99	33.9387	235.093	16.9988	201.953	39.2114	308.115
381045	27.0055	227.483	37.3775	241.722	50.116	178.367	62.9819	266.355	47.8468	282.877	33.7807	235.326	16.9684	202.213	39.0556	307.863
381046	26.8925	227.733	37.1887	241.928	50.1206	178.757	62.7324	266.391	47.6084	282.765	33.6221	235.559	16.9377	202.472	38.8993	307.612
381047	26.7791	227.983	36.9996	242.133	50.1238	179.147	62.4829	266.427	47.3699	282.654	33.4631	235.79	16.9066	202.732	38.7424	307.362
381048	26.6653	228.232	36.81	242.337	50.1258	179.537	62.2333	266.462	47.1313	282.543	33.3037	236.021	16.8751	202.991	38.5851	307.113
381049	26.551	228.481	36.6202	242.54	50.1264	179.927	61.9838	266.496	46.8925	282.434	33.1439	236.251	16.8434	203.25	38.4272	306.865
381050	26.4362	228.729	36.43	242.742	50.1257	180.317	61.7343	266.53	46.6537	282.326	32.9836	236.48	16.8113	203.509	38.2688	306.618
381051	26.321	228.977	36.2394	242.943	50.1237	180.707	61.4847	266.563	46.4148	282.219	32.8229	236.708	16.7788	203.768	38.1099	306.373
381052	26.2054	229.224	36.0485	243.143	50.1204	181.097	61.2351	266.596	46.1757	282.113	32.6619	236.935	16.7461	204.027	37.9505	306.128
381053	26.0893	229.471	35.8573	243.342	50.1158	181.487	60.9856	266.628	45.9366	282.007	32.5003	237.162	16.713	204.286	37.7906	305.885
381054	25.9729	229.717	35.6657	243.54	50.1098	181.877	60.736	266.66	45.6974	281.903	32.3384	237.388	16.6796	204.545	37.6302	305.642
381055	25.856	229.963	35.4738	243.738	50.1026	182.266	60.4864	266.691	45.4581	281.799	32.176	237.613	16.6458	204.803	37.4693	305.401
381056	25.7387	230.208	35.2816	243.934	50.094	182.656	60.2368	266.722	45.2187	281.696	32.0133	237.837	16.6118	205.062	37.3079	305.16
381057	25.6209	230.453	35.0891	244.129	50.0841	183.045	59.9872	266.752	44.9792	281.594	31.8502	238.06	16.5774	205.32	37.1461	304.921
381058	25.5028	230.697	34.8962	244.323	50.0729	183.435	59.7376	266.781	44.7397	281.493	31.6866	238.282	16.5426	205.579	36.9838	304.683
381059	25.3842	230.941	34.703	244.517	50.0604	183.824	59.488	266.811	44.5	281.393	31.5227	238.504	16.5076	205.837	36.821	304.445
381060	25.2652	231.184	34.5096	244.709	50.0466	184.213	59.2383	266.84	44.2603	281.294	31.3584	238.725	16.4722	206.095	36.6577	304.209
381061	25.1459	231.427	34.3158	244.9	50.0315	184.601	58.9887	266.868	44.0204	281.195	31.1937	238.945	16.4365	206.353	36.494	303.973
381062	25.0261	231.669	34.1217	245.091	50.0151	184.99	58.7391	266.896	43.7805	281.097	31.0286	239.165	16.4005	206.611	36.3299	303.739
381063	24.9059	231.911	33.9273	245.281	49.9974	185.378	58.4894	266.923	43.5405	281	30.8632	239.383	16.3641	206.869	36.1652	303.506
381064	24.7853	232.153	33.7326	245.47	49.9783	185.766	58.2398	266.951	43.3005	280.904	30.6973	239.601	16.3274	207.127	36.0002	303.273
381065	24.6644	232.393	33.5377	245.658	49.958	186.153	57.9901	266.977	43.0603	280.808	30.5311	239.818	16.2904	207.384	35.8347	303.042
381066	24.543	232.634	33.3424	245.845	49.9364	186.54	57.7405	267.004	42.8201	280.713	30.3646	240.035	16.2531	207.642	35.6688	302.811
381067	24.4213	232.874	33.1469	246.031	49.9135	186.927	57.4908	267.03	42.5798	280.619	30.1976	240.25	16.2155	207.899	35.5024	302.582
381068	24.2991	233.113	32.951	246.217	49.8893	187.313	57.2411	267.055	42.3394	280.526	30.0304	240.465	16.1776	208.157	35.3356	302.353
381069	24.1766	233.352	32.7549	246.402	49.8638	187.699	56.9914	267.08	42.099	280.433	29.8627	240.679	16.1393	208.414	35.1684	302.125
381070	24.0537	233.591	32.5585	246.586	49.837	188.085	56.7418	267.105	41.8585	280.341	29.6947	240.893	16.1007	208.671	35.0008	301.899
381071	23.9305	233.829	32.3619	246.769	49.8089	188.47	56.4921	267.13	41.6179	280.25	29.5264	241.105	16.0618	208.928	34.8327	301.673
381072	23.8068	234.067	32.165	246.951	49.7796	188.855	56.2424	267.154	41.3772	280.159	29.3577	241.317	16.0226	209.185	34.6643	301.448
381073	23.6828	234.304	31.9678	247.132	49.749	189.239	55.9927	267.178	41.1365	280.069	29.1887	241.528	15.9831	209.442	34.4954	301.224
381074	23.5584	234.541	31.7703	247.313	49.717	189.623	55.743	267.202	40.8957	279.979	29.0193	241.739	15.9432	209.699	34.3261	301.001
381075	23.4337	234.777	31.5726	247.493	49.6839	190.006	55.4932	267.225	40.6549	279.891	28.8497	241.949	15.9031	209.956	34.1565	300.779
381076	23.3085	235.013	31.3746	247.672	49.6494	190.388	55.2435	267.248	40.414	279.803	28.6796	242.158	15.8626	210.212	33.9864	300.557
381077	23.1831	235.249	31.1764	247.85	49.6137	190.771	54.9938	267.27	40.173	279.715	28.5093	242.367	15.8218	210.469	33.816	300.337
381078	23.0572	235.483	30.978	248.028	49.5767	191.152	54.7441	267.293	39.9319	279.628	28.3386	242.574	15.7807	210.725	33.6452	300.117
381079	22.931	235.718	30.7793	248.205	49.5385	191.533	54.4943	267.315	39.6908	279.542	28.1676	242.781	15.7393	210.981	33.474	299.899
381080	22.8045	235.952	30.5803	248.381	49.499	191.913	54.2446	267.337	39.4496	279.456	27.9963	242.988	15.6976	211.237	33.3024	299.681
381081	22.6776	236.186	30.3811	248.556	49.4582	192.293	53.9949	267.358	39.2084	279.371	27.8247	243.194	15.6556	211.493	33.1305	299.464
381082	22.5504	236.419	30.1817	248.731	49.4162	192.672	53.7451	267.379	38.9671	279.286	27.6528	243.399	15.6133	211.749	32.9582	299.247
381083	22.4228	236.652	29.982	248.905	49.373	193.051	53.4954	267.4	38.7258	279.202	27.4805	243.603	15.5707	212.005	32.7855	299.032
381084	22.2949	236.884	29.7821	249.078	49.3285	193.428	53.2456	267.421	38.4844	279.119	27.308	243.807	15.5278	212.261	32.6124	298.818
381085	22.1667	237.116	29.5819	249.251	49.2828	193.805	52.9959	267.441	38.2429	279.036	27.1351	244.01	15.4846	212.516	32.439	298.604
381086	22.0381	237.347	29.3816	249.423	49.2358	194.182	52.7461	267.462	38.0014	278.954	26.962	244.213	15.4411	212.772	32.2653	298.391
381087	21.9092	237.578	29.181	249.594	49.1876	194.557	52.4964	267.482	37.7598	278.872	26.7886	244.415	15.3972	213.027	32.0912	298.179
381088	21.7799	237.809	28.9802	249.764	49.1382	194.932	52.2466	267.501	37.5182	278.791	26.6148	244.616	15.3531	213.282	31.9167	297.968
381089	21.6503	238.039	28.7791	249.934	49.0876	195.306	51.9968	267.521	37.2765	278.71	26.4408	244.817	15.3087	213.538	31.7419	297.757
381090	21.5205	238.269	28.5779	250.103	49.0358	195.68	51.7471	267.54	37.0348	278.63	26.2665	245.017	15.264	213.793	31.5668	297.548
381091	21.3902	238.498	28.3764	250.272	48.9827	196.052	51.4973	267.559	36.793	278.55	26.0919	245.216	15.2189	214.048	31.3913	297.339
381092	21.2597	238.727	28.1747	250.44	48.9284	196.424	51.2475	267.578	36.5512	278.471	25.9171	245.415	15.1736	214.302	31.2156	297.13
381093	21.1288	238.956	27.9729	250.607	48.873	196.795	50.9977	267.596	36.3093	278.392	25.7419	245.614	15.128	214.557	31.0394	296.923
381094	20.9977	239.184	27.7708	250.773	48.8163	197.165	50.7479	267.615	36.0673	278.314	25.5665	245.811	15.0821	214.812	30.863	296.717
381095	20.8662	239.412	27.5685	250.939	48.7585	197.534	50.4981	267.633	35.8254	278.236	25.3908	246.008	15.0359	215.066	30.6862	296.511
381096	20.7344	239.639	27.366	251.105	48.6995	197.903	50.2484	267.651	35.5833	278.158	25.2149	246.205	14.9895	215.321	30.5091	296.306
381097	20.6023	239.866	27.1633	251.269	48.6393	198.27	49.9986	267.669	35.3413	278.081	25.0386	246.401	14.9427	215.575	30.3317	296.101
381098	20.4699	240.093	26.9604	251.434	48.5779	198.637	49.7488	267.686	35.0991	278.005	24.8621	246.596	14.8956	215.829	30.154	295.898
381099	20.3372	240.319	26.7573	251.597	48.5154	199.002	49.499	267.704	34.857	277.929	24.6854	246.791	14.8483	216.083	29.976	295.695
381100	20.2042	240.544	26.554	251.76	48.4517	199.367	49.2492	267.721	34.6148	277.853	24.5084	246.985	14.8006	216.337	29.7977	295.493
381101	20.0709	240.77	26.3505	251.922	48.3868	199.731	48.9993	267.738	34.3725	277.778	24.3312	247.179	14.7527	216.591	29.6191	295.291
381102	19.9374	240.995	26.1469	252.084	48.3208	200.094	48.7495	267.755	34.1302	277.703	24.1536	247.372	14.7045	216.845	29.4402	295.09
381103	19.8035	241.219	25.943	252.245	48.2536	200.456	48.4997	267.771	33.8879	277.629	23.9759	247.565	14.656	217.098	29.261	294.89
381104	19.6693	241.443	25.739	252.406	48.1853	200.817	48.2499	267.788	33.6455	277.555	23.7979	247.757	14.6072	217.352	29.0815	294.691
381105	19.5349	241.667	25.5348	252.566	48.1159	201.177	48.0001	267.804	33.403	277.481	23.6197	247.948	14.5582	217.605	28.9017	294.492
381106	19.4002	241.891	25.3304	252.726	48.0453	201.536	47.7503	267.82	33.1606	277.408	23.4412	248.139	14.5088	217.858	28.7216	294.294
381107	19.2652	242.114	25.1259	252.885	47.9736	201.894	47.5004	267.836	32.9181	277.336	23.2624	248.33	14.4592	218.111	28.5412	294.097
381108	19.1299	242.336	24.9211	253.043	47.9008	202.251	47.2506	267.852	32.6755	277.263	23.0835	248.52	14.4093	218.364	28.3606	293.9
381109	18.9943	242.559	24.7162	253.201	47.8269	202.607	47.0008	267.868	32.4329	277.191	22.9043	248.709	14.3591	218.617	28.1797	293.704
381110	18.8585	242.781	24.5111	253.358	47.7519	202.962	46.7509	267.883	32.1903	277.12	22.7249	248.898	14.3087	218.87	27.9985	293.509
381111	18.7224	243.002	24.3059	253.515	47.6758	203.316	46.5011	267.898	31.9476	277.049	22.5452	249.087	14.258	219.123	27.8171	293.314
381112	18.586	243.224	24.1005	253.672	47.5985	203.669	46.2513	267.913	31.7049	276.978	22.3653	249.275	14.207	219.375	27.6354	293.12
381113	18.4494	243.444	23.8949	253.827	47.5202	204.021	46.0014	267.928	31.4622	276.907	22.1852	249.462	14.1557	219.628	27.4534	292.927
381114	18.3125	243.665	23.6892	253.983	47.4408	204.372	45.7516	267.943	31.2194	276.837	22.0049	249.649	14.1042	219.88	27.2711	292.734
381115	18.1753	243.885	23.4833	254.137	47.3604	204.722	45.5018	267.958	30.9766	276.767	21.8244	249.836	14.0524	220.132	27.0887	292.542
381116	18.0379	244.105	23.2772	254.292	47.2788	205.071	45.2519	267.973	30.7338	276.698	21.6436	250.022	14.0003	220.384	26.9059	292.35
381117	17.9002	244.324	23.071	254.446	47.1962	205.418	45.002	267.987	30.4909	276.629	21.4627	250.207	13.9479	220.636	26.7229	292.159
381118	17.7623	244.543	22.8647	254.599	47.1126	205.765	44.7522	268.001	30.248	276.56	21.2815	250.392	13.8953	220.888	26.5397	291.969
381119	17.6242	244.762	22.6581	254.752	47.0279	206.11	44.5023	268.015	30.005	276.492	21.1001	250.577	13.8424	221.14	26.3561	291.779
381120	17.4857	244.981	22.4515	254.904	46.9422	206.455	44.2525	268.029	29.762	276.423	20.9185	250.761	13.7892	221.392	26.1724	291.59
381121	17.3471	245.199	22.2447	255.056	46.8554	206.798	44.0026	268.043	29.519	276.356	20.7368	250.945	13.7358	221.643	25.9884	291.401
381122	17.2081	245.416	22.0377	255.208	46.7676	207.14	43.7528	268.057	29.276	276.288	20.5548	251.128	13.6822	221.894	25.8042	291.213
381123	17.069	245.634	21.8306	255.359	46.6788	207.481	43.5029	268.071	29.0329	276.221	20.3726	251.311	13.6282	222.146	25.6198	291.026
381124	16.9296	245.851	21.6234	255.51	46.5889	207.821	43.2531	268.084	28.7898	276.154	20.1902	251.493	13.574	222.397	25.4351	290.839
381125	16.79	246.068	21.416	255.66	46.498	208.159	43.0032	268.098	28.5467	276.088	20.0076	251.675	13.5196	222.648	25.2502	290.653
381126	16.6501	246.284	21.2085	255.81	46.4062	208.497	42.7533	268.111	28.3035	276.021	19.8248	251.857	13.4648	222.899	25.065	290.467
381127	16.51	246.5	21.0008	255.959	46.3133	208.833	42.5035	268.124	28.0603	275.955	19.6419	252.038	13.4099	223.149	24.8797	290.282
381128	16.3697	246.716	20.793	256.108	46.2195	209.169	42.2536	268.137	27.8171	275.89	19.4587	252.218	13.3546	223.4	24.6941	290.098
381129	16.2292	246.931	20.5851	256.256	46.1247	209.503	42.0037	268.15	27.5738	275.824	19.2754	252.399	13.2991	223.651	24.5083	289.913
381130	16.0884	247.147	20.377	256.404	46.0288	209.836	41.7538	268.163	27.3305	275.759	19.0919	252.578	13.2434	223.901	24.3223	289.73
381131	15.9474	247.361	20.1688	256.552	45.932	210.168	41.504	268.176	27.0872	275.694	18.9082	252.758	13.1874	224.152	24.136	289.547
381132	15.8062	247.576	19.9605	256.699	45.8343	210.498	41.2541	268.188	26.8439	275.63	18.7243	252.937	13.1311	224.402	23.9496	289.365
381133	15.6647	247.79	19.7521	256.846	45.7356	210.828	41.0042	268.201	26.6005	275.565	18.5403	253.116	13.0747	224.652	23.7629	289.183
381134	15.5231	248.004	19.5435	256.993	45.6359	211.156	40.7543	268.213	26.3571	275.501	18.3561	253.294	13.0179	224.902	23.576	289.001
381135	15.3812	248.218	19.3348	257.139	45.5353	211.483	40.5045	268.225	26.1137	275.438	18.1717	253.472	12.9609	225.152	23.389	288.82
381136	15.2392	248.431	19.126	257.284	45.4338	211.809	40.2546	268.238	25.8702	275.374	17.9871	253.649	12.9037	225.401	23.2017	288.64
381137	15.0969	248.644	18.9171	257.43	45.3313	212.134	40.0047	268.25	25.6268	275.311	17.8024	253.826	12.8462	225.651	23.0143	288.46
381138	14.9544	248.857	18.708	257.575	45.2279	212.457	39.7548	268.262	25.3833	275.248	17.6175	254.003	12.7885	225.901	22.8266	288.281
381139	14.8117	249.069	18.4989	257.719	45.1236	212.78	39.5049	268.273	25.1397	275.185	17.4324	254.179	12.7305	226.15	22.6387	288.102
381140	14.6688	249.282	18.2896	257.863	45.0184	213.101	39.255	268.285	24.8962	275.123	17.2472	254.355	12.6723	226.399	22.4507	287.923
381141	14.5257	249.494	18.0802	258.007	44.9123	213.421	39.0051	268.297	24.6526	275.06	17.0618	254.531	12.6138	226.649	22.2624	287.745
381142	14.3824	249.705	17.8707	258.151	44.8053	213.74	38.7552	268.308	24.409	274.998	16.8763	254.706	12.5552	226.898	22.074	287.568
381143	14.239	249.917	17.6611	258.294	44.6974	214.057	38.5053	268.32	24.1654	274.936	16.6906	254.881	12.4962	227.147	21.8854	287.391
381144	14.0953	250.128	17.4514	258.437	44.5885	214.374	38.2555	268.331	23.9218	274.875	16.5048	255.056	12.4371	227.395	21.6966	287.214
381145	13.9514	250.338	17.2416	258.579	44.4789	214.689	38.0056	268.343	23.6781	274.813	16.3188	255.23	12.3777	227.644	21.5076	287.038
381146	13.8073	250.549	17.0316	258.721	44.3683	215.003	37.7557	268.354	23.4344	274.752	16.1326	255.404	12.318	227.893	21.3185	286.862
381147	13.6631	250.759	16.8216	258.863	44.2569	215.316	37.5058	268.365	23.1907	274.691	15.9464	255.577	12.2582	228.141	21.1291	286.687
381148	13.5187	250.969	16.6115	259.005	44.1446	215.628	37.2559	268.376	22.947	274.63	15.7599	255.751	12.1981	228.389	20.9396	286.512
381149	13.3741	251.179	16.4012	259.146	44.0315	215.938	37.006	268.387	22.7032	274.57	15.5733	255.924	12.1377	228.638	20.75	286.338
381150	13.2293	251.388	16.1909	259.287	43.9175	216.247	36.7561	268.398	22.4595	274.509	15.3866	256.096	12.0772	228.886	20.5601	286.164
381151	13.0843	251.598	15.9804	259.427	43.8027	216.555	36.5061	268.409	22.2157	274.449	15.1998	256.268	12.0164	229.134	20.3701	285.99
381152	12.9392	251.807	15.7699	259.568	43.6871	216.862	36.2562	268.42	21.9719	274.389	15.0128	256.44	11.9554	229.382	20.1799	285.817
381153	12.7938	252.015	15.5593	259.708	43.5706	217.168	36.0063	268.43	21.728	274.33	14.8256	256.612	11.8941	229.63	19.9896	285.645
381154	12.6484	252.224	15.3486	259.847	43.4534	217.473	35.7564	268.441	21.4842	274.27	14.6384	256.783	11.8326	229.877	19.7991	285.472
381155	12.5027	252.432	15.1378	259.987	43.3353	217.776	35.5065	268.451	21.2403	274.211	14.451	256.954	11.771	230.125	19.6084	285.3
381156	12.3569	252.64	14.9269	260.126	43.2164	218.078	35.2566	268.462	20.9964	274.151	14.2635	257.125	11.709	230.372	19.4176	285.129
381157	12.2109	252.848	14.7159	260.265	43.0967	218.379	35.0067	268.472	20.7525	274.092	14.0758	257.296	11.6469	230.619	19.2266	284.958
381158	12.0647	253.055	14.5048	260.403	42.9762	218.679	34.7568	268.482	20.5086	274.034	13.8881	257.466	11.5846	230.867	19.0355	284.787
381159	11.9184	253.263	14.2936	260.541	42.8549	218.977	34.5069	268.493	20.2647	273.975	13.7002	257.636	11.522	231.114	18.8442	284.617
381160	11.7719	253.47	14.0824	260.68	42.7328	219.275	34.257	268.503	20.0207	273.917	13.5122	257.805	11.4592	231.361	18.6528	284.447
381161	11.6253	253.677	13.8711	260.817	42.61	219.571	34.007	268.513	19.7767	273.858	13.324	257.975	11.3962	231.608	18.4612	284.278
381162	11.4785	253.883	13.6596	260.955	42.4864	219.866	33.7571	268.523	19.5328	273.8	13.1357	258.144	11.333	231.855	18.2695	284.108
381163	11.3316	254.09	13.4482	261.092	42.3621	220.16	33.5072	268.533	19.2888	273.742	12.9474	258.313	11.2696	232.101	18.0777	283.94
381164	11.1845	254.296	13.2366	261.229	42.2369	220.453	33.2573	268.542	19.0447	273.685	12.7589	258.481	11.2059	232.348	17.8857	283.771
381165	11.0373	254.502	13.0249	261.366	42.1111	220.744	33.0074	268.552	18.8007	273.627	12.5703	258.649	11.1421	232.594	17.6935	283.603
381166	10.8899	254.708	12.8132	261.502	41.9845	221.035	32.7574	268.562	18.5566	273.569	12.3816	258.817	11.078	232.84	17.5013	283.435
381167	10.7424	254.913	12.6014	261.639	41.8571	221.324	32.5075	268.572	18.3126	273.512	12.1928	258.985	11.0137	233.087	17.3089	283.268
381168	10.5947	255.119	12.3895	261.774	41.7291	221.612	32.2576	268.581	18.0685	273.455	12.0038	259.153	10.9493	233.333	17.1163	283.101
381169	10.4469	255.324	12.1776	261.91	41.6003	221.899	32.0077	268.591	17.8244	273.398	11.8148	259.32	10.8846	233.579	16.9236	282.934
381170	10.2989	255.529	11.9656	262.046	41.4708	222.185	31.7577	268.6	17.5802	273.341	11.6257	259.487	10.8197	233.825	16.7309	282.768
381171	10.1508	255.733	11.7535	262.181	41.3405	222.469	31.5078	268.61	17.3361	273.284	11.4364	259.654	10.7546	234.071	16.5379	282.602
381172	10.0026	255.938	11.5413	262.316	41.2096	222.753	31.2579	268.619	17.092	273.228	11.2471	259.82	10.6893	234.316	16.3449	282.436
381173	9.85426	256.142	11.3291	262.451	41.078	223.035	31.008	268.628	16.8478	273.171	11.0577	259.987	10.6238	234.562	16.1517	282.271
381174	9.70578	256.346	11.1168	262.586	40.9457	223.316	30.758	268.637	16.6036	273.115	10.8681	260.153	10.5581	234.807	15.9584	282.106
381175	9.55717	256.55	10.9045	262.721	40.8126	223.596	30.5081	268.647	16.3595	273.059	10.6785	260.319	10.4923	235.053	15.765	281.941
381176	9.40844	256.754	10.6921	262.855	40.679	223.875	30.2582	268.656	16.1153	273.003	10.4888	260.485	10.4262	235.298	15.5715	281.777
381177	9.25957	256.958	10.4796	262.989	40.5446	224.153	30.0082	268.665	15.8711	272.947	10.2989	260.65	10.3599	235.543	15.3778	281.613
381178	9.11059	257.161	10.267	263.123	40.4096	224.43	29.7583	268.674	15.6268	272.891	10.109	260.815	10.2934	235.788	15.184	281.449
381179	8.96149	257.365	10.0544	263.257	40.2739	224.705	29.5084	268.683	15.3826	272.835	9.91906	260.98	10.2267	236.033	14.9902	281.285
381180	8.81227	257.567	9.84176	263.39	40.1375	224.98	29.2584	268.692	15.1384	272.78	9.72898	261.145	10.1599	236.278	14.7962	281.122
381181	8.66293	257.771	9.62905	263.524	40.0005	225.253	29.0085	268.7	14.8941	272.724	9.53881	261.31	10.0928	236.522	14.6021	280.959
381182	8.51348	257.973	9.41628	263.657	39.8628	225.525	28.7586	268.709	14.6498	272.669	9.34857	261.474	10.0256	236.767	14.4079	280.796
381183	8.36392	258.176	9.20345	263.79	39.7245	225.796	28.5086	268.718	14.4056	272.614	9.15823	261.639	9.95817	237.012	14.2136	280.634
381184	8.21424	258.378	8.99057	263.923	39.5856	226.066	28.2587	268.726	14.1613	272.559	8.96783	261.803	9.89056	237.256	14.0191	280.471
381185	8.06446	258.58	8.77763	264.055	39.446	226.335	28.0087	268.735	13.917	272.504	8.77734	261.967	9.82277	237.5	13.8246	280.31
381186	7.91457	258.783	8.56465	264.188	39.3058	226.603	27.7588	268.744	13.6727	272.449	8.58677	262.131	9.75479	237.744	13.63	280.148
381187	7.76457	258.985	8.35161	264.32	39.165	226.87	27.5089	268.752	13.4283	272.394	8.39613	262.294	9.68662	237.988	13.4353	279.987
381188	7.61448	259.186	8.13853	264.452	39.0236	227.136	27.2589	268.761	13.184	272.34	8.20542	262.458	9.61828	238.232	13.2405	279.825
381189	7.46428	259.388	7.9254	264.584	38.8816	227.4	27.009	268.769	12.9397	272.285	8.01464	262.621	9.54976	238.476	13.0456	279.665
381190	7.31398	259.59	7.71222	264.716	38.739	227.664	26.759	268.777	12.6953	272.231	7.82378	262.784	9.48106	238.72	12.8506	279.504
381191	7.16359	259.791	7.499	264.848	38.5958	227.927	26.5091	268.786	12.451	272.176	7.63286	262.947	9.41218	238.964	12.6555	279.344
381192	7.0131	259.992	7.28573	264.98	38.4519	228.188	26.2592	268.794	12.2066	272.122	7.44186	263.11	9.34313	239.207	12.4603	279.183
381193	6.86252	260.193	7.07242	265.111	38.3075	228.448	26.0092	268.802	11.9622	272.068	7.25081	263.272	9.2739	239.451	12.2651	279.024
381194	6.71185	260.394	6.85907	265.243	38.1626	228.708	25.7593	268.81	11.7178	272.014	7.05969	263.435	9.2045	239.694	12.0697	278.864
381195	6.56109	260.595	6.64568	265.374	38.017	228.966	25.5093	268.819	11.4734	271.96	6.86851	263.597	9.13493	239.938	11.8743	278.704
381196	6.41024	260.796	6.43225	265.505	37.8709	229.224	25.2594	268.827	11.229	271.906	6.67726	263.76	9.06519	240.181	11.6788	278.545
381197	6.2593	260.996	6.21878	265.636	37.7242	229.48	25.0094	268.835	10.9846	271.852	6.48596	263.922	8.99527	240.424	11.4831	278.386
381198	6.10829	261.197	6.00527	265.767	37.5769	229.735	24.7595	268.843	10.7402	271.798	6.2946	264.084	8.92519	240.667	11.2875	278.228
381199	5.95719	261.397	5.79173	265.898	37.4291	229.989	24.5095	268.851	10.4958	271.744	6.10319	264.246	8.85495	240.91	11.0917	278.069
381200	5.80601	261.597	5.57815	266.029	37.2808	230.243	24.2596	268.859	10.2514	271.691	5.91172	264.407	8.78454	241.153	10.8958	277.911
381201	5.65475	261.798	5.36454	266.159	37.1319	230.495	24.0096	268.867	10.0069	271.637	5.72019	264.569	8.71396	241.395	10.6999	277.752
381202	5.50342	261.998	5.15089	266.289	36.9825	230.746	23.7597	268.875	9.76248	271.584	5.52862	264.73	8.64322	241.638	10.5039	277.594
381203	5.35201	262.197	4.93722	266.42	36.8325	230.996	23.5097	268.882	9.51803	271.53	5.337	264.892	8.57232	241.88	10.3079	277.437
381204	5.20053	262.397	4.72351	266.55	36.682	231.245	23.2598	268.89	9.27358	271.477	5.14532	265.053	8.50127	242.123	10.1118	277.279
381205	5.04898	262.597	4.50978	266.68	36.531	231.494	23.0098	268.898	9.02912	271.424	4.95361	265.214	8.43005	242.365	9.91555	277.122
381206	4.89736	262.796	4.29601	266.81	36.3794	231.741	22.7599	268.906	8.78465	271.371	4.76184	265.375	8.35867	242.607	9.71928	276.964
381207	4.74568	262.996	4.08222	266.941	36.2274	231.987	22.5099	268.913	8.54018	271.317	4.57004	265.536	8.28714	242.85	9.52295	276.807
381208	4.59393	263.195	3.86841	267.071	36.0748	232.233	22.2599	268.921	8.2957	271.264	4.37819	265.697	8.21546	243.092	9.32655	276.65
381209	4.44211	263.395	3.65456	267.2	35.9217	232.477	22.01	268.928	8.05121	271.211	4.1863	265.858	8.14362	243.334	9.13009	276.494
381210	4.29024	263.594	3.4407	267.33	35.7682	232.721	21.76	268.936	7.80673	271.158	3.99437	266.019	8.07163	243.576	8.93356	276.337
381211	4.13831	263.793	3.22681	267.46	35.6141	232.963	21.5101	268.943	7.56224	271.105	3.8024	266.179	7.99949	243.817	8.73698	276.181
381212	3.98632	263.992	3.0129	267.59	35.4595	233.205	21.2601	268.951	7.31774	271.053	3.6104	266.34	7.9272	244.059	8.54034	276.024
381213	3.83427	264.191	2.79897	267.719	35.3045	233.445	21.0102	268.958	7.07324	271	3.41837	266.5	7.85476	244.301	8.34364	275.868
381214	3.68217	264.39	2.58503	267.849	35.149	233.685	20.7602	268.966	6.82873	270.947	3.2263	266.661	7.78218	244.542	8.14689	275.712
381215	3.53002	264.589	2.37106	267.978	34.993	233.924	20.5102	268.973	6.58422	270.894	3.0342	266.821	7.70945	244.784	7.95008	275.557
381216	3.37782	264.788	2.15708	268.108	34.8365	234.162	20.2603	268.981	6.33971	270.842	2.84207	266.981	7.63657	245.025	7.75322	275.401
381217	3.22557	264.986	1.94308	268.237	34.6795	234.399	20.0103	268.988	6.0952	270.789	2.64991	267.141	7.56356	245.266	7.55631	275.245
381218	3.07328	265.185	1.72906	268.367	34.5221	234.635	19.7604	268.995	5.85068	270.736	2.45773	267.301	7.4904	245.507	7.35935	275.09
381219	2.92094	265.384	1.51504	268.496	34.3643	234.87	19.5104	269.002	5.60616	270.684	2.26552	267.462	7.4171	245.749	7.16235	274.935
381220	2.76856	265.582	1.301	268.625	34.206	235.104	19.2604	269.01	5.36163	270.631	2.07328	267.622	7.34367	245.99	6.9653	274.78
381221	2.61613	265.781	1.08694	268.755	34.0472	235.337	19.0105	269.017	5.1171	270.579	1.88103	267.781	7.2701	246.231	6.7682	274.625
381222	2.46367	265.979	0.872881	268.884	33.888	235.57	18.7605	269.024	4.87258	270.526	1.68875	267.941	7.19639	246.471	6.57106	274.47
381223	2.31117	266.177	0.658809	269.013	33.7283	235.802	18.5105	269.031	4.62805	270.474	1.49646	268.101	7.12254	246.712	6.37387	274.315
381224	2.15864	266.375	0.444729	269.142	33.5682	236.032	18.2606	269.038	4.38351	270.421	1.30414	268.261	7.04857	246.953	6.17665	274.16
381225	2.00607	266.574	0.230642	269.272	33.4077	236.262	18.0106	269.045	4.13898	270.369	1.11181	268.421	6.97446	247.194	5.97939	274.006
381226	1.85348	266.772	0.0165482	269.401	33.2467	236.491	17.7607	269.052	3.89444	270.317	0.919469	268.581	6.90022	247.434	5.78209	273.851
381227	1.70085	266.97	-0.19755	269.53	33.0853	236.719	17.5107	269.059	3.6499	270.264	0.727111	268.741	6.82585	247.674	5.58476	273.697
381228	1.54819	267.168	-0.411653	269.659	32.9235	236.947	17.2607	269.066	3.40537	270.212	0.534742	268.9	6.75136	247.915	5.38739	273.543
381229	1.39551	267.366	-0.625758	269.788	32.7613	237.173	17.0108	269.073	3.16083	270.16	0.342362	269.06	6.67674	248.155	5.18999	273.389
381230	1.2428	267.564	-0.839865	269.918	32.5987	237.399	16.7608	269.08	2.91629	270.107	0.149973	269.22	6.60199	248.395	4.99255	273.235
381231	1.09007	267.762	-1.05397	270.047	32.4357	237.624	16.5108	269.087	2.67175	270.055	-0.0424228	269.38	6.52712	248.636	4.79509	273.081
381232	0.937325	267.961	-1.26808	270.176	32.2722	237.848	16.2609	269.094	2.42721	270.003	-0.234824	269.539	6.45213	248.876	4.5976	272.927
381233	0.784557	268.158	-1.48219	270.305	32.1084	238.071	16.0109	269.101	2.18267	269.95	-0.427231	269.699	6.37702	249.116	4.40008	272.773
381234	0.631772	268.356	-1.69629	270.434	31.9441	238.293	15.7609	269.107	1.93813	269.898	-0.619639	269.859	6.30178	249.356	4.20253	272.619
381235	0.478971	268.554	-1.91039	270.564	31.7795	238.515	15.5109	269.114	1.69359	269.846	-0.812049	270.018	6.22643	249.595	4.00496	272.466
381236	0.326158	268.752	-2.12448	270.693	31.6145	238.736	15.261	269.121	1.44905	269.794	-1.00446	270.178	6.15096	249.835	3.80737	272.312
381237	0.173333	268.95	-2.33857	270.822	31.4491	238.956	15.011	269.127	1.20451	269.741	-1.19687	270.338	6.07538	250.075	3.60976	272.159
381238	0.0204985	269.148	-2.55266	270.952	31.2833	239.175	14.761	269.134	0.959973	269.689	-1.38927	270.498	5.99968	250.315	3.41212	272.005
381239	-0.132344	269.346	-2.76673	271.081	31.1171	239.393	14.5111	269.141	0.715437	269.637	-1.58167	270.657	5.92387	250.554	3.21447	271.852
381240	-0.285192	269.544	-2.9808	271.21	30.9506	239.611	14.2611	269.148	0.470903	269.585	-1.77407	270.817	5.84794	250.794	3.0168	271.698
381241	-0.438045	269.742	-3.19485	271.34	30.7837	239.828	14.0111	269.154	0.22637	269.533	-1.96646	270.977	5.77191	251.033	2.81912	271.545
381242	-0.5909	269.94	-3.40889	271.469	30.6164	240.044	13.7612	269.161	-0.0181617	269.48	-2.15883	271.137	5.69577	251.273	2.62142	271.392
381243	-0.743755	270.138	-3.62292	271.599	30.4487	240.26	13.5112	269.167	-0.262691	269.428	-2.3512	271.297	5.61952	251.512	2.4237	271.238
381244	-0.89661	270.336	-3.83694	271.728	30.2807	240.474	13.2612	269.174	-0.507218	269.376	-2.54355	271.457	5.54316	251.751	2.22598	271.085
381245	-1.04946	270.534	-4.05095	271.858	30.1124	240.688	13.0112	269.18	-0.751742	269.323	-2.7359	271.617	5.4667	251.99	2.02825	270.932
381246	-1.20231	270.731	-4.26493	271.988	29.9437	240.901	12.7613	269.187	-0.996264	269.271	-2.92822	271.777	5.39014	252.229	1.83051	270.779
381247	-1.35515	270.929	-4.47891	272.118	29.7746	241.114	12.5113	269.193	-1.24078	269.219	-3.12053	271.937	5.31347	252.468	1.63276	270.626
381248	-1.50798	271.127	-4.69286	272.247	29.6052	241.326	12.2613	269.2	-1.4853	269.166	-3.31282	272.097	5.23671	252.707	1.435	270.473
381249	-1.6608	271.325	-4.90679	272.377	29.4355	241.537	12.0113	269.206	-1.72981	269.114	-3.50509	272.257	5.15984	252.946	1.23724	270.32
381250	-1.81361	271.523	-5.12071	272.507	29.2654	241.747	11.7614	269.213	-1.97432	269.062	-3.69734	272.417	5.08288	253.185	1.03948	270.166
381251	-1.9664	271.721	-5.3346	272.637	29.095	241.956	11.5114	269.219	-2.21883	269.009	-3.88957	272.577	5.00582	253.424	0.841714	270.014
381252	-2.11918	271.92	-5.54847	272.767	28.9243	242.165	11.2614	269.226	-2.46333	268.957	-4.08178	272.738	4.92866	253.663	0.643949	269.86
381253	-2.27194	272.118	-5.76232	272.898	28.7532	242.374	11.0114	269.232	-2.70783	268.904	-4.27395	272.898	4.85141	253.901	0.446186	269.707
381254	-2.42468	272.316	-5.97614	273.028	28.5818	242.581	10.7615	269.238	-2.95232	268.852	-4.46611	273.059	4.77407	254.14	0.248426	269.554
381255	-2.5774	272.514	-6.18994	273.158	28.4101	242.788	10.5115	269.245	-3.19681	268.799	-4.65823	273.219	4.69663	254.379	0.0506699	269.401
381256	-2.7301	272.712	-6.40371	273.289	28.238	242.994	10.2615	269.251	-3.44129	268.747	-4.85032	273.38	4.61911	254.617	-0.147081	269.248
381257	-2.88277	272.91	-6.61745	273.42	28.0657	243.2	10.0115	269.257	-3.68577	268.694	-5.04238	273.541	4.5415	254.856	-0.344825	269.095
381258	-3.03542	273.109	-6.83116	273.55	27.893	243.404	9.76155	269.263	-3.93024	268.642	-5.23441	273.701	4.4638	255.094	-0.54256	268.942
381259	-3.18803	273.307	-7.04484	273.681	27.7201	243.608	9.51157	269.27	-4.17471	268.589	-5.4264	273.862	4.38602	255.332	-0.740286	268.789
381260	-3.34062	273.505	-7.25849	273.812	27.5468	243.812	9.26159	269.276	-4.41918	268.536	-5.61836	274.023	4.30815	255.571	-0.938	268.636
381261	-3.49317	273.704	-7.47211	273.943	27.3732	244.015	9.01162	269.282	-4.66363	268.483	-5.81027	274.184	4.23019	255.809	-1.1357	268.483
381262	-3.64569	273.903	-7.6857	274.074	27.1993	244.217	8.76164	269.288	-4.90808	268.43	-6.00215	274.346	4.15216	256.047	-1.33339	268.33
381263	-3.79818	274.101	-7.89925	274.205	27.0252	244.419	8.51166	269.294	-5.15253	268.378	-6.19399	274.507	4.07404	256.285	-1.53106	268.176
381264	-3.95062	274.3	-8.11276	274.337	26.8507	244.62	8.26168	269.3	-5.39697	268.325	-6.38579	274.668	3.99585	256.524	-1.72872	268.023
381265	-4.10303	274.499	-8.32624	274.469	26.676	244.82	8.0117	269.307	-5.6414	268.272	-6.57754	274.83	3.91758	256.762	-1.92636	267.87
381266	-4.25539	274.697	-8.53968	274.6	26.5009	245.02	7.76172	269.313	-5.88582	268.219	-6.76924	274.991	3.83923	257	-2.12397	267.717
381267	-4.40771	274.896	-8.75308	274.732	26.3256	245.219	7.51173	269.319	-6.13024	268.166	-6.9609	275.153	3.76081	257.238	-2.32157	267.563
381268	-4.55999	275.095	-8.96644	274.864	26.15	245.417	7.26175	269.325	-6.37465	268.113	-7.15251	275.315	3.68232	257.475	-2.51914	267.41
381269	-4.71222	275.294	-9.17976	274.996	25.9741	245.615	7.01177	269.331	-6.61906	268.059	-7.34407	275.477	3.60375	257.713	-2.71669	267.257
381270	-4.8644	275.493	-9.39303	275.128	25.798	245.812	6.76179	269.337	-6.86345	268.006	-7.53558	275.639	3.52511	257.951	-2.91422	267.103
381271	-5.01653	275.692	-9.60626	275.261	25.6215	246.009	6.51181	269.343	-7.10784	267.953	-7.72703	275.801	3.4464	258.189	-3.11171	266.949
381272	-5.16861	275.892	-9.81945	275.393	25.4448	246.205	6.26183	269.349	-7.35222	267.899	-7.91843	275.964	3.36763	258.427	-3.30918	266.796
381273	-5.32063	276.091	-10.0326	275.526	25.2679	246.4	6.01184	269.355	-7.59659	267.846	-8.10977	276.127	3.28878	258.664	-3.50662	266.642
381274	-5.4726	276.291	-10.2457	275.659	25.0907	246.595	5.76186	269.361	-7.84095	267.792	-8.30106	276.289	3.20987	258.902	-3.70403	266.488
381275	-5.6245	276.49	-10.4587	275.792	24.9132	246.79	5.51188	269.367	-8.0853	267.739	-8.49228	276.452	3.1309	259.14	-3.90141	266.334
381276	-5.77635	276.69	-10.6717	275.925	24.7354	246.984	5.26189	269.373	-8.32965	267.685	-8.68345	276.615	3.05187	259.377	-4.09875	266.18
381277	-5.92814	276.89	-10.8847	276.059	24.5574	247.177	5.01191	269.379	-8.57398	267.631	-8.87455	276.778	2.97277	259.615	-4.29605	266.026
381278	-6.07986	277.089	-11.0975	276.192	24.3792	247.369	4.76193	269.385	-8.81831	267.577	-9.06558	276.942	2.89362	259.852	-4.49332	265.872
381279	-6.23152	277.289	-11.3104	276.326	24.2007	247.562	4.51194	269.391	-9.06262	267.524	-9.25655	277.105	2.8144	260.09	-4.69055	265.718
381280	-6.38311	277.49	-11.5232	276.46	24.022	247.753	4.26196	269.397	-9.30693	267.47	-9.44745	277.269	2.73513	260.327	-4.88775	265.564
381281	-6.53463	277.69	-11.7359	276.594	23.843	247.944	4.01197	269.403	-9.55123	267.416	-9.63829	277.433	2.6558	260.565	-5.0849	265.409
381282	-6.68607	277.89	-11.9485	276.729	23.6637	248.135	3.76199	269.408	-9.79551	267.361	-9.82905	277.597	2.57642	260.802	-5.282	265.255
381283	-6.83745	278.09	-12.1611	276.863	23.4843	248.325	3.512	269.414	-10.0398	267.307	-10.0197	277.761	2.49699	261.039	-5.47907	265.1
381284	-6.98875	278.291	-12.3737	276.998	23.3046	248.514	3.26202	269.42	-10.2841	267.253	-10.2104	277.925	2.4175	261.276	-5.67608	264.946
381285	-7.13997	278.492	-12.5862	277.133	23.1246	248.703	3.01203	269.426	-10.5283	267.198	-10.4009	278.09	2.33796	261.514	-5.87305	264.791
381286	-7.29112	278.692	-12.7986	277.269	22.9445	248.892	2.76205	269.432	-10.7725	267.144	-10.5914	278.255	2.25838	261.751	-6.06997	264.636
381287	-7.44218	278.893	-13.011	277.404	22.7641	249.079	2.51206	269.438	-11.0168	267.089	-10.7817	278.42	2.17874	261.988	-6.26684	264.481
381288	-7.59316	279.094	-13.2233	277.54	22.5835	249.267	2.26207	269.443	-11.261	267.034	-10.972	278.585	2.09906	262.225	-6.46366	264.325
381289	-7.74406	279.296	-13.4355	277.675	22.4026	249.454	2.01209	269.449	-11.5052	266.979	-11.1623	278.75	2.01934	262.463	-6.66043	264.17
381290	-7.89487	279.497	-13.6477	277.812	22.2216	249.64	1.7621	269.455	-11.7494	266.925	-11.3524	278.916	1.93957	262.7	-6.85714	264.015
381291	-8.04559	279.698	-13.8597	277.948	22.0403	249.826	1.51211	269.461	-11.9936	266.87	-11.5424	279.082	1.85976	262.937	-7.0538	263.859
381292	-8.19622	279.9	-14.0718	278.085	21.8588	250.012	1.26212	269.466	-12.2377	266.814	-11.7324	279.248	1.77991	263.174	-7.2504	263.703
381293	-8.34676	280.102	-14.2837	278.221	21.6771	250.197	1.01214	269.472	-12.4819	266.759	-11.9223	279.414	1.70002	263.411	-7.44693	263.548
381294	-8.4972	280.304	-14.4956	278.358	21.4952	250.381	0.76215	269.478	-12.726	266.704	-12.112	279.58	1.62009	263.648	-7.64341	263.392
381295	-8.64755	280.506	-14.7074	278.496	21.313	250.565	0.512162	269.484	-12.9702	266.648	-12.3017	279.747	1.54013	263.885	-7.83983	263.235
381296	-8.7978	280.708	-14.9191	278.634	21.1307	250.749	0.262174	269.489	-13.2143	266.592	-12.4913	279.914	1.46012	264.122	-8.03618	263.079
381297	-8.94795	280.91	-15.1308	278.771	20.9482	250.932	0.0121854	269.495	-13.4584	266.537	-12.6808	280.081	1.38009	264.359	-8.23247	262.923
381298	-9.09799	281.113	-15.3423	278.909	20.7654	251.114	-0.237803	269.501	-13.7025	266.481	-12.8702	280.248	1.30002	264.596	-8.42869	262.766
381299	-9.24794	281.315	-15.5538	279.048	20.5825	251.297	-0.487792	269.507	-13.9465	266.425	-13.0595	280.416	1.21992	264.833	-8.62484	262.609
381300	-9.39778	281.518	-15.7652	279.187	20.3993	251.478	-0.737781	269.512	-14.1906	266.369	-13.2487	280.584	1.1398	265.07	-8.82092	262.452
381301	-9.54751	281.721	-15.9766	279.326	20.216	251.66	-0.98777	269.518	-14.4346	266.313	-13.4378	280.752	1.05964	265.307	-9.01694	262.295
381302	-9.69713	281.925	-16.1878	279.465	20.0325	251.841	-1.23776	269.524	-14.6786	266.256	-13.6268	280.921	0.979457	265.544	-9.21287	262.138
381303	-9.84664	282.128	-16.399	279.604	19.8488	252.021	-1.48775	269.529	-14.9226	266.2	-13.8157	281.089	0.899247	265.781	-9.40874	261.98
381304	-9.99603	282.332	-16.61	279.744	19.6649	252.201	-1.73774	269.535	-15.1666	266.143	-14.0044	281.258	0.819014	266.017	-9.60452	261.822
381305	-10.1453	282.535	-16.821	279.884	19.4808	252.381	-1.98773	269.54	-15.4106	266.086	-14.1931	281.428	0.738757	266.254	-9.80023	261.664
381306	-10.2945	282.739	-17.0319	280.025	19.2966	252.56	-2.23772	269.546	-15.6546	266.029	-14.3816	281.597	0.658478	266.491	-9.99587	261.506
381307	-10.4435	282.943	-17.2427	280.166	19.1121	252.739	-2.48771	269.552	-15.8985	265.972	-14.5701	281.767	0.57818	266.728	-10.1914	261.348
381308	-10.5924	283.148	-17.4534	280.307	18.9275	252.917	-2.7377	269.557	-16.1424	265.915	-14.7584	281.937	0.497862	266.965	-10.3869	261.19
381309	-10.7412	283.352	-17.664	280.448	18.7427	253.095	-2.98769	269.563	-16.3863	265.858	-14.9466	282.107	0.417527	267.201	-10.5823	261.031
381310	-10.8899	283.557	-17.8745	280.59	18.5577	253.273	-3.23768	269.568	-16.6302	265.8	-15.1347	282.278	0.337175	267.438	-10.7776	260.872
381311	-11.0384	283.762	-18.085	280.732	18.3726	253.45	-3.48767	269.574	-16.8741	265.742	-15.3226	282.449	0.256809	267.675	-10.9728	260.713
381312	-11.1868	283.967	-18.2953	280.874	18.1873	253.627	-3.73766	269.58	-17.118	265.684	-15.5105	282.62	0.17643	267.912	-11.1679	260.553
381313	-11.3351	284.172	-18.5055	281.017	18.0018	253.803	-3.98766	269.585	-17.3618	265.626	-15.6982	282.791	0.0960379	268.149	-11.3629	260.394
381314	-11.4833	284.378	-18.7156	281.16	17.8161	253.979	-4.23765	269.591	-17.6056	265.568	-15.8858	282.963	0.0156355	268.385	-11.5579	260.234
381315	-11.6313	284.583	-18.9257	281.303	17.6303	254.155	-4.48764	269.596	-17.8494	265.51	-16.0732	283.135	-0.0647762	268.622	-11.7527	260.074
381316	-11.7792	284.789	-19.1356	281.447	17.4444	254.33	-4.73763	269.602	-18.0932	265.451	-16.2605	283.308	-0.145196	268.859	-11.9475	259.914
381317	-11.9269	284.995	-19.3454	281.591	17.2582	254.505	-4.98762	269.608	-18.3369	265.392	-16.4477	283.481	-0.225622	269.096	-12.1421	259.753
381318	-12.0745	285.202	-19.5551	281.735	17.0719	254.68	-5.23762	269.613	-18.5807	265.334	-16.6348	283.654	-0.306054	269.332	-12.3367	259.593
381319	-12.2219	285.408	-19.7647	281.88	16.8855	254.854	-5.48761	269.619	-18.8244	265.275	-16.8217	283.827	-0.386489	269.569	-12.5311	259.432
381320	-12.3692	285.615	-19.9741	282.025	16.6989	255.028	-5.7376	269.624	-19.0681	265.215	-17.0085	284.001	-0.466927	269.806	-12.7255	259.27
381321	-12.5164	285.822	-20.1835	282.171	16.5121	255.201	-5.98759	269.63	-19.3117	265.156	-17.1951	284.175	-0.547366	270.043	-12.9197	259.109
381322	-12.6634	286.029	-20.3928	282.317	16.3253	255.375	-6.23759	269.635	-19.5554	265.096	-17.3816	284.349	-0.627804	270.279	-13.1139	258.947
381323	-12.8102	286.237	-20.6019	282.463	16.1382	255.547	-6.48758	269.641	-19.799	265.036	-17.5679	284.524	-0.708242	270.516	-13.3079	258.785
381324	-12.9569	286.445	-20.8109	282.61	15.951	255.72	-6.73757	269.646	-20.0426	264.976	-17.7541	284.7	-0.788676	270.753	-13.5018	258.623
381325	-13.1035	286.653	-21.0198	282.757	15.7637	255.892	-6.98757	269.652	-20.2862	264.916	-17.9402	284.875	-0.869105	270.99	-13.6956	258.46
381326	-13.2499	286.861	-21.2286	282.905	15.5762	256.064	-7.23756	269.657	-20.5298	264.856	-18.1261	285.051	-0.94953	271.227	-13.8893	258.298
381327	-13.3961	287.069	-21.4372	283.053	15.3886	256.236	-7.48755	269.663	-20.7733	264.795	-18.3118	285.227	-1.02995	271.464	-14.0829	258.134
381328	-13.5421	287.278	-21.6457	283.201	15.2009	256.407	-7.73755	269.668	-21.0168	264.735	-18.4974	285.404	-1.11035	271.7	-14.2764	257.971
381329	-13.688	287.487	-21.8542	283.35	15.013	256.578	-7.98754	269.674	-21.2603	264.673	-18.6829	285.581	-1.19075	271.937	-14.4697	257.807
381330	-13.8337	287.696	-22.0624	283.499	14.825	256.748	-8.23753	269.679	-21.5038	264.612	-18.8681	285.758	-1.27114	272.174	-14.663	257.643
381331	-13.9793	287.906	-22.2706	283.649	14.6368	256.918	-8.48753	269.685	-21.7472	264.551	-19.0533	285.936	-1.35152	272.411	-14.8561	257.479
381332	-14.1247	288.115	-22.4786	283.799	14.4485	257.089	-8.73752	269.69	-21.9906	264.489	-19.2382	286.114	-1.43188	272.648	-15.0491	257.315
381333	-14.2699	288.325	-22.6865	283.949	14.2601	257.258	-8.98752	269.696	-22.234	264.427	-19.423	286.293	-1.51222	272.885	-15.2419	257.15
381334	-14.4149	288.536	-22.8942	284.1	14.0716	257.428	-9.23751	269.701	-22.4774	264.365	-19.6076	286.471	-1.59255	273.121	-15.4347	256.984
381335	-14.5598	288.746	-23.1018	284.252	13.8829	257.597	-9.48751	269.707	-22.7207	264.303	-19.7921	286.651	-1.67286	273.358	-15.6273	256.819
381336	-14.7044	288.957	-23.3093	284.403	13.6942	257.766	-9.7375	269.712	-22.9641	264.24	-19.9763	286.83	-1.75315	273.595	-15.8198	256.653
381337	-14.8489	289.168	-23.5166	284.556	13.5053	257.934	-9.98749	269.718	-23.2073	264.178	-20.1604	287.011	-1.83343	273.832	-16.0121	256.487
381338	-14.9932	289.379	-23.7238	284.709	13.3163	258.103	-10.2375	269.723	-23.4506	264.114	-20.3444	287.191	-1.91367	274.069	-16.2043	256.32
381339	-15.1374	289.591	-23.9308	284.862	13.1271	258.271	-10.4875	269.728	-23.6938	264.051	-20.5281	287.372	-1.9939	274.306	-16.3964	256.154
381340	-15.2813	289.803	-24.1377	285.016	12.9379	258.438	-10.7375	269.734	-23.937	263.988	-20.7117	287.554	-2.0741	274.543	-16.5883	255.987
381341	-15.4251	290.015	-24.3444	285.17	12.7485	258.606	-10.9875	269.74	-24.1802	263.924	-20.895	287.736	-2.15427	274.78	-16.7801	255.819
381342	-15.5686	290.228	-24.551	285.325	12.559	258.773	-11.2375	269.745	-24.4233	263.86	-21.0782	287.918	-2.23442	275.017	-16.9718	255.651
381343	-15.7119	290.44	-24.7575	285.48	12.3695	258.94	-11.4875	269.75	-24.6665	263.796	-21.2612	288.101	-2.31454	275.254	-17.1633	255.483
381344	-15.8551	290.653	-24.9637	285.636	12.1798	259.107	-11.7375	269.756	-24.9095	263.731	-21.4441	288.284	-2.39462	275.491	-17.3546	255.315
381345	-15.998	290.867	-25.1699	285.792	11.99	259.273	-11.9875	269.761	-25.1526	263.666	-21.6267	288.467	-2.47468	275.728	-17.5459	255.145
381346	-16.1408	291.08	-25.3758	285.949	11.8001	259.44	-12.2375	269.767	-25.3956	263.601	-21.8091	288.651	-2.5547	275.966	-17.7369	254.976
381347	-16.2833	291.294	-25.5816	286.106	11.6101	259.606	-12.4875	269.772	-25.6386	263.536	-21.9913	288.836	-2.63469	276.203	-17.9278	254.807
381348	-16.4257	291.509	-25.7873	286.264	11.42	259.771	-12.7375	269.778	-25.8816	263.47	-22.1734	289.021	-2.71464	276.44	-18.1186	254.637
381349	-16.5678	291.723	-25.9928	286.422	11.2298	259.937	-12.9874	269.783	-26.1245	263.404	-22.3552	289.206	-2.79455	276.677	-18.3092	254.466
381350	-16.7097	291.938	-26.1981	286.581	11.0395	260.102	-13.2374	269.789	-26.3674	263.338	-22.5368	289.392	-2.87443	276.914	-18.4996	254.296
381351	-16.8514	292.153	-26.4032	286.741	10.8491	260.267	-13.4874	269.794	-26.6103	263.271	-22.7182	289.579	-2.95427	277.152	-18.6899	254.124
381352	-16.9929	292.369	-26.6082	286.901	10.6586	260.432	-13.7374	269.8	-26.8531	263.204	-22.8994	289.766	-3.03406	277.389	-18.8801	253.953
381353	-17.1342	292.584	-26.813	287.061	10.468	260.597	-13.9874	269.805	-27.0959	263.137	-23.0804	289.953	-3.11381	277.626	-19.07	253.781
381354	-17.2753	292.801	-27.0176	287.223	10.2773	260.761	-14.2374	269.811	-27.3387	263.07	-23.2612	290.141	-3.19352	277.864	-19.2598	253.608
381355	-17.4161	293.017	-27.222	287.384	10.0866	260.926	-14.4874	269.816	-27.5814	263.002	-23.4417	290.329	-3.27318	278.101	-19.4494	253.436
381356	-17.5567	293.234	-27.4263	287.547	9.89573	261.09	-14.7374	269.822	-27.8241	262.934	-23.6221	290.518	-3.3528	278.338	-19.6389	253.262
381357	-17.6971	293.451	-27.6304	287.71	9.7048	261.253	-14.9874	269.827	-28.0667	262.866	-23.8022	290.708	-3.43237	278.576	-19.8282	253.089
381358	-17.8372	293.668	-27.8343	287.873	9.51378	261.417	-15.2374	269.833	-28.3094	262.797	-23.9821	290.898	-3.51188	278.813	-20.0173	252.915
381359	-17.9771	293.886	-28.038	288.037	9.32268	261.581	-15.4874	269.838	-28.5519	262.728	-24.1618	291.088	-3.59135	279.051	-20.2062	252.74
381360	-18.1168	294.104	-28.2415	288.202	9.13151	261.744	-15.7374	269.844	-28.7945	262.659	-24.3412	291.279	-3.67077	279.288	-20.3949	252.566
381361	-18.2562	294.323	-28.4448	288.368	8.94025	261.907	-15.9874	269.849	-29.037	262.589	-24.5204	291.471	-3.75013	279.526	-20.5835	252.39
381362	-18.3954	294.542	-28.6479	288.534	8.74891	262.07	-16.2374	269.855	-29.2795	262.519	-24.6994	291.663	-3.82944	279.764	-20.7719	252.214
381363	-18.5344	294.761	-28.8509	288.7	8.5575	262.233	-16.4874	269.86	-29.5219	262.449	-24.8781	291.856	-3.90869	280.002	-20.9601	252.038
381364	-18.6731	294.98	-29.0536	288.867	8.36602	262.395	-16.7374	269.866	-29.7643	262.378	-25.0566	292.049	-3.98788	280.239	-21.1481	251.862
381365	-18.8116	295.2	-29.2561	289.035	8.17446	262.558	-16.9874	269.871	-30.0066	262.307	-25.2349	292.242	-4.06701	280.477	-21.3359	251.685
381366	-18.9498	295.421	-29.4585	289.204	7.98283	262.72	-17.2374	269.877	-30.2489	262.236	-25.4128	292.437	-4.14608	280.715	-21.5235	251.507
381367	-19.0877	295.641	-29.6606	289.373	7.79114	262.882	-17.4874	269.882	-30.4912	262.164	-25.5906	292.632	-4.22509	280.953	-21.711	251.329
381368	-19.2254	295.862	-29.8625	289.543	7.59937	263.044	-17.7374	269.888	-30.7334	262.092	-25.7681	292.827	-4.30404	281.191	-21.8982	251.15
381369	-19.3629	296.083	-30.0642	289.714	7.40754	263.206	-17.9874	269.893	-30.9756	262.019	-25.9454	293.023	-4.38292	281.429	-22.0852	250.971
381370	-19.5001	296.305	-30.2657	289.885	7.21565	263.367	-18.2374	269.899	-31.2177	261.947	-26.1223	293.22	-4.46174	281.667	-22.2721	250.792
381371	-19.637	296.527	-30.4669	290.057	7.02369	263.529	-18.4874	269.904	-31.4598	261.873	-26.2991	293.417	-4.54049	281.905	-22.4587	250.612
381372	-19.7737	296.75	-30.668	290.23	6.83167	263.69	-18.7374	269.91	-31.7019	261.8	-26.4755	293.615	-4.61917	282.143	-22.6451	250.432
381373	-19.9101	296.972	-30.8688	290.403	6.6396	263.851	-18.9874	269.915	-31.9439	261.726	-26.6517	293.813	-4.69778	282.381	-22.8313	250.251
381374	-20.0462	297.195	-31.0694	290.577	6.44746	264.012	-19.2374	269.921	-32.1859	261.651	-26.8277	294.012	-4.77632	282.619	-23.0173	250.069
381375	-20.1821	297.419	-31.2697	290.752	6.25527	264.173	-19.4874	269.926	-32.4278	261.576	-27.0033	294.211	-4.85479	282.858	-23.2031	249.887
381376	-20.3177	297.643	-31.4699	290.928	6.06302	264.334	-19.7374	269.932	-32.6696	261.501	-27.1787	294.412	-4.93318	283.096	-23.3887	249.705
381377	-20.453	297.867	-31.6698	291.104	5.87072	264.495	-19.9874	269.938	-32.9115	261.425	-27.3538	294.613	-5.0115	283.334	-23.574	249.522
381378	-20.588	298.092	-31.8694	291.281	5.67837	264.656	-20.2373	269.943	-33.1532	261.349	-27.5286	294.814	-5.08974	283.573	-23.7592	249.338
381379	-20.7228	298.317	-32.0689	291.459	5.48596	264.816	-20.4873	269.949	-33.3949	261.273	-27.7032	295.016	-5.1679	283.811	-23.9441	249.154
381380	-20.8572	298.543	-32.268	291.637	5.29351	264.976	-20.7373	269.954	-33.6366	261.196	-27.8774	295.219	-5.24598	284.05	-24.1288	248.97
381381	-20.9914	298.769	-32.467	291.817	5.10101	265.137	-20.9873	269.96	-33.8782	261.118	-28.0514	295.422	-5.32398	284.288	-24.3132	248.784
381382	-21.1253	298.995	-32.6656	291.997	4.90847	265.297	-21.2373	269.966	-34.1198	261.04	-28.2251	295.626	-5.4019	284.527	-24.4974	248.599
381383	-21.2589	299.221	-32.8641	292.178	4.71588	265.457	-21.4873	269.971	-34.3613	260.962	-28.3985	295.831	-5.47973	284.766	-24.6814	248.412
381384	-21.3922	299.449	-33.0623	292.36	4.52325	265.617	-21.7373	269.977	-34.6028	260.883	-28.5715	296.036	-5.55748	285.004	-24.8651	248.226
381385	-21.5252	299.676	-33.2602	292.542	4.33057	265.777	-21.9873	269.983	-34.8442	260.804	-28.7443	296.242	-5.63515	285.243	-25.0486	248.038
381386	-21.6579	299.904	-33.4578	292.726	4.13786	265.937	-22.2373	269.988	-35.0855	260.724	-28.9168	296.449	-5.71272	285.482	-25.2319	247.85
381387	-21.7903	300.132	-33.6552	292.91	3.94511	266.096	-22.4873	269.994	-35.3268	260.644	-29.0889	296.656	-5.79021	285.721	-25.4149	247.662
381388	-21.9224	300.361	-33.8524	293.095	3.75232	266.256	-22.7373	270	-35.5681	260.563	-29.2608	296.864	-5.8676	285.96	-25.5977	247.473
381389	-22.0541	300.59	-34.0492	293.281	3.5595	266.415	-22.9873	270.005	-35.8093	260.482	-29.4323	297.073	-5.94491	286.199	-25.7802	247.283
381390	-22.1856	300.82	-34.2458	293.467	3.36665	266.575	-23.2373	270.011	-36.0504	260.4	-29.6035	297.282	-6.02212	286.438	-25.9625	247.093
381391	-22.3168	301.05	-34.4421	293.655	3.17376	266.734	-23.4873	270.017	-36.2915	260.318	-29.7744	297.492	-6.09923	286.677	-26.1445	246.902
381392	-22.4476	301.28	-34.6381	293.843	2.98084	266.894	-23.7373	270.022	-36.5325	260.235	-29.945	297.703	-6.17625	286.917	-26.3262	246.711
381393	-22.5782	301.511	-34.8338	294.033	2.78789	267.053	-23.9873	270.028	-36.7734	260.152	-30.1152	297.915	-6.25318	287.156	-26.5077	246.518
381394	-22.7083	301.743	-35.0293	294.223	2.59492	267.212	-24.2373	270.034	-37.0143	260.068	-30.2851	298.127	-6.33	287.395	-26.6889	246.326
381395	-22.8382	301.974	-35.2244	294.414	2.40192	267.371	-24.4873	270.039	-37.2551	259.983	-30.4547	298.34	-6.40672	287.635	-26.8699	246.132
381396	-22.9678	302.207	-35.4193	294.606	2.20889	267.53	-24.7373	270.045	-37.4959	259.898	-30.6239	298.554	-6.48334	287.874	-27.0505	245.939
381397	-23.097	302.439	-35.6138	294.799	2.01584	267.689	-24.9873	270.051	-37.7366	259.813	-30.7928	298.768	-6.55986	288.114	-27.2309	245.744
381398	-23.2259	302.672	-35.8081	294.993	1.82277	267.848	-25.2373	270.057	-37.9772	259.727	-30.9613	298.983	-6.63628	288.354	-27.4111	245.549
381399	-23.3544	302.906	-36.002	295.188	1.62968	268.007	-25.4873	270.063	-38.2178	259.64	-31.1295	299.2	-6.71259	288.593	-27.5909	245.353
381400	-23.4827	303.14	-36.1957	295.384	1.43657	268.166	-25.7373	270.068	-38.4583	259.553	-31.2974	299.416	-6.78879	288.833	-27.7705	245.156
381401	-23.6105	303.374	-36.389	295.58	1.24345	268.325	-25.9873	270.074	-38.6987	259.465	-31.4648	299.634	-6.86488	289.073	-27.9498	244.959
381402	-23.7381	303.609	-36.582	295.778	1.05031	268.484	-26.2373	270.08	-38.9391	259.376	-31.6319	299.852	-6.94087	289.313	-28.1288	244.761
381403	-23.8653	303.844	-36.7747	295.977	0.857152	268.643	-26.4873	270.086	-39.1794	259.287	-31.7987	300.071	-7.01674	289.553	-28.3075	244.563
381404	-23.9921	304.08	-36.9671	296.177	0.663984	268.801	-26.7373	270.092	-39.4196	259.198	-31.9651	300.291	-7.0925	289.793	-28.4859	244.364
381405	-24.1186	304.316	-37.1591	296.377	0.470805	268.96	-26.9873	270.098	-39.6598	259.107	-32.1311	300.512	-7.16815	290.034	-28.664	244.164
381406	-24.2447	304.553	-37.3508	296.579	0.277616	269.119	-27.2373	270.103	-39.8998	259.016	-32.2967	300.733	-7.24368	290.274	-28.8418	243.963
381407	-24.3705	304.79	-37.5422	296.782	0.0844183	269.278	-27.4873	270.109	-40.1398	258.925	-32.462	300.955	-7.3191	290.514	-29.0193	243.762
381408	-24.4959	305.028	-37.7332	296.986	-0.108786	269.437	-27.7373	270.115	-40.3798	258.832	-32.6268	301.178	-7.3944	290.755	-29.1964	243.56
381409	-24.621	305.266	-37.9239	297.19	-0.301995	269.595	-27.9873	270.121	-40.6196	258.739	-32.7913	301.402	-7.46957	290.995	-29.3733	243.357
381410	-24.7456	305.504	-38.1142	297.396	-0.495208	269.754	-28.2373	270.127	-40.8594	258.646	-32.9554	301.627	-7.54463	291.236	-29.5499	243.154
381411	-24.8699	305.743	-38.3042	297.603	-0.688424	269.913	-28.4873	270.133	-41.0991	258.551	-33.1191	301.852	-7.61957	291.476	-29.7261	242.95
381412	-24.9939	305.983	-38.4938	297.811	-0.88164	270.071	-28.7373	270.139	-41.3387	258.456	-33.2824	302.078	-7.69438	291.717	-29.9021	242.745
381413	-25.1175	306.223	-38.683	298.02	-1.07485	270.23	-28.9873	270.145	-41.5782	258.361	-33.4453	302.305	-7.76907	291.958	-30.0777	242.54
381414	-25.2406	306.463	-38.8719	298.231	-1.26807	270.389	-29.2373	270.151	-41.8177	258.264	-33.6078	302.534	-7.84363	292.199	-30.2529	242.333
381415	-25.3635	306.704	-39.0604	298.442	-1.46128	270.548	-29.4873	270.157	-42.057	258.167	-33.7699	302.762	-7.91807	292.44	-30.4279	242.126
381416	-25.4859	306.945	-39.2486	298.654	-1.65448	270.707	-29.7373	270.163	-42.2963	258.069	-33.9315	302.992	-7.99237	292.681	-30.6025	241.919
381417	-25.6079	307.187	-39.4363	298.868	-1.84768	270.865	-29.9872	270.169	-42.5355	257.97	-34.0928	303.223	-8.06655	292.922	-30.7767	241.71
381418	-25.7296	307.43	-39.6237	299.082	-2.04087	271.024	-30.2372	270.175	-42.7746	257.871	-34.2536	303.454	-8.14059	293.163	-30.9507	241.501
381419	-25.8508	307.673	-39.8107	299.298	-2.23405	271.183	-30.4872	270.182	-43.0136	257.77	-34.4139	303.686	-8.2145	293.405	-31.1242	241.291
381420	-25.9717	307.916	-39.9972	299.515	-2.42722	271.342	-30.7372	270.188	-43.2525	257.669	-34.5739	303.92	-8.28828	293.646	-31.2975	241.08
381421	-26.0921	308.16	-40.1834	299.733	-2.62038	271.501	-30.9872	270.194	-43.4913	257.567	-34.7334	304.154	-8.36192	293.887	-31.4703	240.868
381422	-26.2122	308.404	-40.3692	299.953	-2.81352	271.66	-31.2372	270.2	-43.7301	257.465	-34.8925	304.389	-8.43543	294.129	-31.6428	240.656
381423	-26.3318	308.649	-40.5546	300.173	-3.00665	271.819	-31.4872	270.206	-43.9687	257.361	-35.0511	304.625	-8.5088	294.371	-31.815	240.443
381424	-26.4511	308.894	-40.7395	300.395	-3.19976	271.978	-31.7372	270.212	-44.2073	257.257	-35.2093	304.861	-8.58202	294.613	-31.9868	240.229
381425	-26.5699	309.14	-40.924	300.618	-3.39285	272.137	-31.9872	270.219	-44.4457	257.151	-35.367	305.099	-8.65511	294.854	-32.1582	240.014
381426	-26.6883	309.387	-41.1082	300.842	-3.58592	272.296	-32.2372	270.225	-44.684	257.045	-35.5243	305.338	-8.72806	295.096	-32.3293	239.798
381427	-26.8064	309.634	-41.2918	301.068	-3.77897	272.456	-32.4872	270.231	-44.9223	256.938	-35.6811	305.577	-8.80086	295.338	-32.4999	239.582
381428	-26.924	309.881	-41.4751	301.295	-3.972	272.615	-32.7372	270.237	-45.1604	256.83	-35.8374	305.818	-8.87351	295.58	-32.6702	239.364
381429	-27.0411	310.129	-41.6579	301.523	-4.165	272.774	-32.9872	270.244	-45.3984	256.721	-35.9933	306.059	-8.94602	295.823	-32.8402	239.146
381430	-27.1578	310.377	-41.8402	301.752	-4.35798	272.934	-33.2372	270.25	-45.6364	256.611	-36.1487	306.302	-9.01839	296.065	-33.0097	238.927
381431	-27.2742	310.626	-42.0221	301.983	-4.55093	273.093	-33.4872	270.257	-45.8742	256.501	-36.3036	306.545	-9.0906	296.308	-33.1788	238.707
381432	-27.39	310.876	-42.2036	302.215	-4.74385	273.253	-33.7372	270.263	-46.1119	256.389	-36.458	306.789	-9.16266	296.55	-33.3475	238.487
381433	-27.5055	311.125	-42.3846	302.448	-4.93674	273.413	-33.9872	270.269	-46.3494	256.276	-36.6119	307.034	-9.23457	296.793	-33.5159	238.265
381434	-27.6205	311.376	-42.5651	302.683	-5.1296	273.572	-34.2372	270.276	-46.5869	256.163	-36.7653	307.281	-9.30633	297.035	-33.6838	238.043
381435	-27.735	311.627	-42.7451	302.918	-5.32242	273.732	-34.4872	270.282	-46.8243	256.048	-36.9182	307.528	-9.37794	297.278	-33.8513	237.819
381436	-27.8492	311.878	-42.9247	303.156	-5.51521	273.892	-34.7372	270.289	-47.0615	255.932	-37.0707	307.776	-9.44938	297.521	-34.0185	237.595
381437	-27.9628	312.13	-43.1038	303.394	-5.70797	274.052	-34.9872	270.295	-47.2986	255.815	-37.2226	308.025	-9.52068	297.764	-34.1851	237.37
381438	-28.076	312.383	-43.2824	303.634	-5.90068	274.212	-35.2372	270.302	-47.5356	255.697	-37.374	308.275	-9.59181	298.007	-34.3514	237.144
381439	-28.1888	312.636	-43.4605	303.876	-6.09336	274.373	-35.4872	270.308	-47.7725	255.578	-37.5248	308.527	-9.66278	298.25	-34.5173	236.917
381440	-28.3011	312.89	-43.638	304.119	-6.28599	274.533	-35.7371	270.315	-48.0092	255.458	-37.6752	308.779	-9.73359	298.494	-34.6827	236.69
381441	-28.413	313.144	-43.8151	304.363	-6.47858	274.694	-35.9871	270.322	-48.2458	255.337	-37.825	309.032	-9.80424	298.737	-34.8477	236.461
381442	-28.5244	313.399	-43.9917	304.609	-6.67113	274.854	-36.2371	270.328	-48.4823	255.215	-37.9743	309.286	-9.87473	298.981	-35.0122	236.231
381443	-28.6353	313.654	-44.1677	304.856	-6.86363	275.015	-36.4871	270.335	-48.7186	255.091	-38.123	309.541	-9.94505	299.224	-35.1763	236
381444	-28.7457	313.909	-44.3432	305.105	-7.05609	275.176	-36.7371	270.342	-48.9548	254.967	-38.2712	309.798	-10.0152	299.468	-35.34	235.769
381445	-28.8557	314.166	-44.5182	305.355	-7.24849	275.337	-36.9871	270.348	-49.1909	254.841	-38.4188	310.055	-10.0852	299.712	-35.5032	235.536
381446	-28.9652	314.423	-44.6926	305.606	-7.44085	275.498	-37.2371	270.355	-49.4268	254.714	-38.5659	310.313	-10.155	299.955	-35.666	235.303
381447	-29.0742	314.68	-44.8665	305.86	-7.63315	275.659	-37.4871	270.362	-49.6626	254.585	-38.7124	310.573	-10.2247	300.2	-35.8283	235.069
381448	-29.1828	314.938	-45.0399	306.114	-7.8254	275.82	-37.7371	270.369	-49.8982	254.456	-38.8584	310.833	-10.2941	300.444	-35.9901	234.833
381449	-29.2908	315.196	-45.2126	306.37	-8.0176	275.982	-37.9871	270.376	-50.1337	254.325	-39.0038	311.095	-10.3634	300.688	-36.1514	234.597
381450	-29.3984	315.455	-45.3848	306.628	-8.20973	276.144	-38.2371	270.383	-50.3691	254.193	-39.1486	311.357	-10.4326	300.932	-36.3123	234.36
381451	-29.5055	315.715	-45.5564	306.888	-8.40181	276.305	-38.4871	270.39	-50.6042	254.059	-39.2928	311.621	-10.5015	301.177	-36.4727	234.121
381452	-29.612	315.975	-45.7275	307.149	-8.59383	276.467	-38.7371	270.397	-50.8392	253.924	-39.4365	311.886	-10.5703	301.421	-36.6327	233.882
381453	-29.7181	316.235	-45.898	307.411	-8.78579	276.629	-38.9871	270.404	-51.0741	253.788	-39.5795	312.152	-10.6389	301.666	-36.7921	233.642
381454	-29.8237	316.496	-46.0678	307.675	-8.97769	276.792	-39.2371	270.411	-51.3088	253.65	-39.722	312.419	-10.7073	301.911	-36.951	233.4
381455	-29.9288	316.758	-46.2371	307.941	-9.16952	276.954	-39.487	270.418	-51.5433	253.511	-39.8638	312.687	-10.7755	302.155	-37.1095	233.158
381456	-30.0333	317.02	-46.4057	308.208	-9.36128	277.117	-39.737	270.425	-51.7777	253.371	-40.005	312.956	-10.8436	302.4	-37.2674	232.915
381457	-30.1374	317.283	-46.5737	308.477	-9.55298	277.279	-39.987	270.432	-52.0119	253.229	-40.1456	313.226	-10.9115	302.645	-37.4248	232.671
381458	-30.241	317.546	-46.7411	308.748	-9.74461	277.442	-40.237	270.439	-52.2459	253.085	-40.2856	313.497	-10.9792	302.89	-37.5817	232.425
381459	-30.344	317.81	-46.9079	309.02	-9.93616	277.606	-40.487	270.447	-52.4797	252.94	-40.425	313.77	-11.0466	303.136	-37.7381	232.179
381460	-30.4465	318.075	-47.074	309.294	-10.1276	277.769	-40.737	270.454	-52.7133	252.793	-40.5637	314.043	-11.114	303.381	-37.894	231.931
381461	-30.5484	318.34	-47.2395	309.57	-10.3191	277.932	-40.987	270.461	-52.9468	252.645	-40.7018	314.318	-11.1811	303.627	-38.0494	231.683
381462	-30.6499	318.605	-47.4043	309.847	-10.5104	278.096	-41.237	270.469	-53.1801	252.495	-40.8393	314.594	-11.248	303.872	-38.2042	231.433
381463	-30.7508	318.871	-47.5684	310.126	-10.7017	278.26	-41.487	270.476	-53.4131	252.344	-40.9761	314.871	-11.3148	304.118	-38.3584	231.182
381464	-30.8512	319.138	-47.7319	310.407	-10.8928	278.424	-41.737	270.483	-53.646	252.19	-41.1122	315.149	-11.3813	304.364	-38.5122	230.93
381465	-30.951	319.405	-47.8947	310.69	-11.0839	278.588	-41.9869	270.491	-53.8787	252.036	-41.2477	315.428	-11.4477	304.61	-38.6653	230.678
381466	-31.0504	319.673	-48.0568	310.974	-11.2749	278.753	-42.2369	270.499	-54.1112	251.879	-41.3825	315.708	-11.5138	304.856	-38.818	230.424
381467	-31.1491	319.941	-48.2182	311.26	-11.4659	278.917	-42.4869	270.506	-54.3434	251.72	-41.5166	315.99	-11.5798	305.102	-38.97	230.169
381468	-31.2473	320.21	-48.3789	311.548	-11.6567	279.082	-42.7369	270.514	-54.5754	251.56	-41.6501	316.273	-11.6456	305.348	-39.1215	229.912
381469	-31.345	320.479	-48.5389	311.838	-11.8475	279.248	-42.9869	270.522	-54.8073	251.398	-41.7829	316.557	-11.7111	305.595	-39.2724	229.655
381470	-31.4421	320.749	-48.6982	312.13	-12.0381	279.413	-43.2369	270.529	-55.0389	251.234	-41.9149	316.842	-11.7765	305.841	-39.4228	229.397
381471	-31.5387	321.02	-48.8567	312.423	-12.2287	279.578	-43.4869	270.537	-55.2703	251.068	-42.0463	317.128	-11.8416	306.088	-39.5726	229.137
381472	-31.6347	321.291	-49.0145	312.718	-12.4192	279.744	-43.7369	270.545	-55.5014	250.9	-42.177	317.415	-11.9066	306.335	-39.7217	228.877
381473	-31.7301	321.562	-49.1715	313.016	-12.6096	279.91	-43.9868	270.553	-55.7323	250.73	-42.3069	317.704	-11.9713	306.582	-39.8703	228.615
381474	-31.825	321.834	-49.3278	313.315	-12.7999	280.077	-44.2368	270.561	-55.963	250.558	-42.4362	317.993	-12.0359	306.829	-40.0183	228.352
381475	-31.9192	322.107	-49.4833	313.615	-12.9901	280.243	-44.4868	270.569	-56.1934	250.384	-42.5647	318.284	-12.1002	307.076	-40.1657	228.088
381476	-32.013	322.38	-49.6381	313.918	-13.1801	280.41	-44.7368	270.577	-56.4236	250.208	-42.6925	318.577	-12.1644	307.323	-40.3124	227.823
381477	-32.1061	322.654	-49.792	314.223	-13.3701	280.577	-44.9868	270.585	-56.6535	250.03	-42.8196	318.87	-12.2283	307.57	-40.4586	227.556
381478	-32.1987	322.929	-49.9452	314.53	-13.56	280.744	-45.2368	270.593	-56.8831	249.849	-42.9459	319.164	-12.292	307.818	-40.6041	227.289
381479	-32.2906	323.204	-50.0975	314.838	-13.7498	280.912	-45.4868	270.601	-57.1125	249.666	-43.0714	319.46	-12.3555	308.065	-40.749	227.02
381480	-32.382	323.479	-50.249	315.149	-13.9395	281.08	-45.7367	270.61	-57.3416	249.481	-43.1962	319.757	-12.4188	308.313	-40.8933	226.75
381481	-32.4728	323.755	-50.3998	315.461	-14.1291	281.248	-45.9867	270.618	-57.5704	249.294	-43.3203	320.055	-12.4819	308.561	-41.0369	226.479
381482	-32.563	324.032	-50.5496	315.776	-14.3185	281.416	-46.2367	270.626	-57.799	249.104	-43.4436	320.354	-12.5447	308.808	-41.1799	226.207
381483	-32.6527	324.309	-50.6987	316.092	-14.5079	281.585	-46.4867	270.635	-58.0272	248.912	-43.5661	320.655	-12.6074	309.057	-41.3222	225.934
381484	-32.7417	324.586	-50.8469	316.411	-14.6971	281.754	-46.7367	270.643	-58.2552	248.717	-43.6878	320.957	-12.6698	309.305	-41.4639	225.659
381485	-32.8301	324.865	-50.9942	316.731	-14.8862	281.923	-46.9867	270.652	-58.4828	248.52	-43.8088	321.26	-12.732	309.553	-41.6048	225.383
381486	-32.9179	325.143	-51.1406	317.054	-15.0752	282.092	-47.2366	270.66	-58.7102	248.32	-43.9289	321.564	-12.794	309.801	-41.7452	225.106
381487	-33.0051	325.423	-51.2862	317.378	-15.2641	282.262	-47.4866	270.669	-58.9372	248.118	-44.0482	321.869	-12.8557	310.05	-41.8848	224.828
381488	-33.0916	325.703	-51.4308	317.705	-15.4528	282.432	-47.7366	270.678	-59.1639	247.912	-44.1668	322.176	-12.9172	310.298	-42.0238	224.548
381489	-33.1776	325.983	-51.5746	318.034	-15.6415	282.603	-47.9866	270.687	-59.3902	247.704	-44.2845	322.484	-12.9785	310.547	-42.1621	224.267
381490	-33.2629	326.264	-51.7174	318.365	-15.83	282.773	-48.2366	270.696	-59.6163	247.494	-44.4014	322.793	-13.0396	310.796	-42.2996	223.985
381491	-33.3477	326.546	-51.8594	318.697	-16.0184	282.944	-48.4865	270.705	-59.8419	247.28	-44.5175	323.103	-13.1005	311.045	-42.4365	223.702
381492	-33.4318	326.827	-52.0003	319.032	-16.2066	283.115	-48.7365	270.714	-60.0673	247.064	-44.6327	323.415	-13.1611	311.294	-42.5727	223.418
381493	-33.5152	327.11	-52.1404	319.369	-16.3947	283.287	-48.9865	270.723	-60.2922	246.844	-44.7471	323.727	-13.2215	311.543	-42.7081	223.132
381494	-33.5981	327.393	-52.2795	319.708	-16.5827	283.459	-49.2365	270.732	-60.5168	246.621	-44.8607	324.041	-13.2817	311.793	-42.8428	222.845
381495	-33.6803	327.677	-52.4176	320.05	-16.7706	283.631	-49.4865	270.741	-60.741	246.396	-44.9734	324.357	-13.3416	312.042	-42.9768	222.557
381496	-33.7618	327.961	-52.5547	320.393	-16.9583	283.804	-49.7364	270.751	-60.9648	246.167	-45.0852	324.673	-13.4013	312.292	-43.1101	222.267
381497	-33.8427	328.246	-52.6908	320.738	-17.1459	283.977	-49.9864	270.76	-61.1882	245.935	-45.1962	324.991	-13.4607	312.541	-43.2426	221.976
381498	-33.923	328.531	-52.826	321.086	-17.3333	284.15	-50.2364	270.77	-61.4112	245.699	-45.3063	325.31	-13.52	312.791	-43.3744	221.684
381499	-34.0026	328.817	-52.9601	321.436	-17.5206	284.324	-50.4864	270.779	-61.6338	245.46	-45.4155	325.63	-13.579	313.041	-43.5054	221.391
381500	-34.0816	329.103	-53.0932	321.788	-17.7078	284.498	-50.7363	270.789	-61.856	245.218	-45.5238	325.951	-13.6377	313.291	-43.6357	221.096
381501	-34.1599	329.39	-53.2253	322.142	-17.8948	284.672	-50.9863	270.799	-62.0777	244.972	-45.6313	326.274	-13.6962	313.542	-43.7651	220.8
381502	-34.2375	329.677	-53.3563	322.498	-18.0816	284.847	-51.2363	270.809	-62.299	244.722	-45.7378	326.598	-13.7545	313.792	-43.8939	220.503
381503	-34.3145	329.965	-53.4863	322.857	-18.2683	285.022	-51.4863	270.819	-62.5198	244.469	-45.8434	326.923	-13.8125	314.042	-44.0218	220.205
381504	-34.3909	330.254	-53.6152	323.217	-18.4549	285.197	-51.7362	270.829	-62.7401	244.212	-45.9481	327.249	-13.8703	314.293	-44.1489	219.905
381505	-34.4665	330.543	-53.743	323.58	-18.6413	285.373	-51.9862	270.839	-62.96	243.951	-46.0519	327.576	-13.9278	314.544	-44.2752	219.604
381506	-34.5415	330.832	-53.8697	323.945	-18.8275	285.549	-52.2362	270.849	-63.1794	243.686	-46.1548	327.905	-13.9851	314.794	-44.4008	219.302
381507	-34.6159	331.122	-53.9953	324.313	-19.0136	285.726	-52.4862	270.86	-63.3982	243.417	-46.2567	328.235	-14.0422	315.045	-44.5255	218.998
381508	-34.6895	331.413	-54.1198	324.682	-19.1995	285.903	-52.7361	270.87	-63.6166	243.143	-46.3577	328.566	-14.099	315.296	-44.6494	218.693
381509	-34.7625	331.704	-54.2432	325.054	-19.3853	286.08	-52.9861	270.881	-63.8344	242.866	-46.4577	328.898	-14.1555	315.548	-44.7725	218.387
381510	-34.8347	331.995	-54.3655	325.428	-19.5709	286.258	-53.2361	270.891	-64.0516	242.584	-46.5568	329.232	-14.2118	315.799	-44.8948	218.079
381511	-34.9063	332.287	-54.4865	325.804	-19.7563	286.436	-53.486	270.902	-64.2683	242.298	-46.6549	329.567	-14.2678	316.05	-45.0162	217.77
381512	-34.9772	332.58	-54.6064	326.182	-19.9415	286.615	-53.736	270.913	-64.4845	242.007	-46.7521	329.903	-14.3236	316.302	-45.1367	217.46
381513	-35.0474	332.873	-54.7252	326.562	-20.1266	286.794	-53.986	270.924	-64.7	241.712	-46.8482	330.24	-14.3792	316.553	-45.2564	217.149
381514	-35.117	333.166	-54.8427	326.945	-20.3115	286.973	-54.2359	270.935	-64.915	241.411	-46.9434	330.578	-14.4344	316.805	-45.3753	216.836
381515	-35.1858	333.46	-54.9591	327.33	-20.4962	287.153	-54.4859	270.946	-65.1293	241.106	-47.0376	330.918	-14.4895	317.057	-45.4933	216.522
381516	-35.2539	333.755	-55.0742	327.717	-20.6808	287.333	-54.7359	270.957	-65.343	240.796	-47.1308	331.259	-14.5442	317.309	-45.6104	216.206
381517	-35.3213	334.05	-55.1881	328.106	-20.8652	287.514	-54.9858	270.969	-65.556	240.481	-47.223	331.601	-14.5987	317.561	-45.7266	215.889
381518	-35.388	334.345	-55.3008	328.498	-21.0494	287.695	-55.2358	270.981	-65.7684	240.161	-47.3142	331.944	-14.653	317.814	-45.8419	215.571
381519	-35.454	334.641	-55.4122	328.892	-21.2334	287.877	-55.4858	270.992	-65.98	239.835	-47.4043	332.288	-14.707	318.066	-45.9564	215.251
381520	-35.5193	334.938	-55.5224	329.288	-21.4172	288.058	-55.7357	271.004	-66.191	239.504	-47.4935	332.634	-14.7607	318.318	-46.0699	214.931
381521	-35.5839	335.234	-55.6313	329.686	-21.6008	288.241	-55.9857	271.016	-66.4013	239.167	-47.5816	332.98	-14.8141	318.571	-46.1826	214.609
381522	-35.6477	335.532	-55.7389	330.087	-21.7842	288.424	-56.2356	271.028	-66.6108	238.825	-47.6687	333.328	-14.8673	318.824	-46.2943	214.285
381523	-35.7109	335.83	-55.8452	330.489	-21.9675	288.607	-56.4856	271.041	-66.8195	238.477	-47.7547	333.677	-14.9202	319.077	-46.4051	213.96
381524	-35.7733	336.128	-55.9502	330.894	-22.1505	288.791	-56.7356	271.053	-67.0275	238.123	-47.8397	334.027	-14.9729	319.33	-46.5149	213.634
381525	-35.8349	336.427	-56.0538	331.301	-22.3333	288.975	-56.9855	271.065	-67.2346	237.762	-47.9236	334.378	-15.0253	319.583	-46.6238	213.307
381526	-35.8959	336.726	-56.1562	331.71	-22.516	289.16	-57.2355	271.078	-67.4409	237.395	-48.0065	334.731	-15.0774	319.836	-46.7318	212.978
381527	-35.9561	337.026	-56.2572	332.121	-22.6984	289.345	-57.4854	271.091	-67.6464	237.022	-48.0882	335.084	-15.1293	320.089	-46.8388	212.648
381528	-36.0156	337.326	-56.3568	332.535	-22.8806	289.531	-57.7354	271.104	-67.851	236.643	-48.169	335.438	-15.1808	320.343	-46.9448	212.317
381529	-36.0743	337.627	-56.455	332.95	-23.0627	289.717	-57.9853	271.117	-68.0546	236.256	-48.2486	335.794	-15.2321	320.597	-47.0499	211.984
381530	-36.1323	337.928	-56.5519	333.368	-23.2445	289.904	-58.2353	271.13	-68.2574	235.863	-48.3271	336.151	-15.2832	320.85	-47.154	211.65
381531	-36.1896	338.229	-56.6474	333.788	-23.4261	290.091	-58.4852	271.144	-68.4592	235.463	-48.4046	336.509	-15.3339	321.104	-47.2571	211.315
381532	-36.2461	338.531	-56.7415	334.21	-23.6075	290.279	-58.7352	271.158	-68.66	235.055	-48.4809	336.868	-15.3844	321.358	-47.3593	210.978
381533	-36.3019	338.833	-56.8341	334.634	-23.7886	290.467	-58.9851	271.171	-68.8599	234.64	-48.5561	337.228	-15.4346	321.612	-47.4604	210.64
381534	-36.3569	339.136	-56.9253	335.06	-23.9695	290.656	-59.2351	271.185	-69.0587	234.218	-48.6302	337.589	-15.4845	321.866	-47.5605	210.301
381535	-36.4111	339.439	-57.0151	335.488	-24.1502	290.845	-59.485	271.2	-69.2564	233.787	-48.7032	337.951	-15.5342	322.121	-47.6596	209.96
381536	-36.4646	339.743	-57.1033	335.918	-24.3307	291.035	-59.735	271.214	-69.453	233.349	-48.7751	338.314	-15.5835	322.375	-47.7577	209.619
381537	-36.5174	340.047	-57.1902	336.35	-24.511	291.225	-59.9849	271.229	-69.6485	232.903	-48.8458	338.678	-15.6326	322.63	-47.8547	209.276
381538	-36.5694	340.351	-57.2755	336.785	-24.691	291.416	-60.2348	271.243	-69.8428	232.448	-48.9154	339.044	-15.6814	322.885	-47.9507	208.931
381539	-36.6206	340.656	-57.3594	337.221	-24.8708	291.608	-60.4848	271.259	-70.036	231.986	-48.9839	339.41	-15.7299	323.139	-48.0457	208.585
381540	-36.671	340.961	-57.4417	337.659	-25.0503	291.8	-60.7347	271.274	-70.2279	231.514	-49.0512	339.777	-15.7781	323.394	-48.1396	208.238
381541	-36.7207	341.267	-57.5226	338.099	-25.2296	291.992	-60.9847	271.289	-70.4185	231.033	-49.1173	340.145	-15.8261	323.649	-48.2325	207.89
381542	-36.7696	341.573	-57.6019	338.541	-25.4087	292.185	-61.2346	271.305	-70.6078	230.544	-49.1823	340.514	-15.8737	323.904	-48.3243	207.541
381543	-36.8177	341.88	-57.6797	338.985	-25.5875	292.379	-61.4845	271.321	-70.7958	230.045	-49.2461	340.885	-15.9211	324.16	-48.415	207.19
381544	-36.8651	342.186	-57.7559	339.431	-25.7661	292.573	-61.7345	271.337	-70.9825	229.536	-49.3088	341.255	-15.9682	324.415	-48.5046	206.838
381545	-36.9117	342.493	-57.8305	339.879	-25.9444	292.768	-61.9844	271.353	-71.1676	229.018	-49.3702	341.627	-16.015	324.671	-48.5932	206.485
381546	-36.9575	342.801	-57.9036	340.329	-26.1225	292.963	-62.2343	271.37	-71.3514	228.49	-49.4305	342	-16.0615	324.926	-48.6807	206.13
381547	-37.0025	343.109	-57.9751	340.78	-26.3003	293.159	-62.4843	271.387	-71.5336	227.952	-49.4896	342.374	-16.1076	325.182	-48.767	205.775
381548	-37.0467	343.417	-58.045	341.233	-26.4779	293.356	-62.7342	271.404	-71.7142	227.404	-49.5474	342.749	-16.1535	325.438	-48.8523	205.418
381549	-37.0902	343.726	-58.1133	341.688	-26.6551	293.553	-62.9841	271.421	-71.8933	226.845	-49.6041	343.125	-16.1992	325.694	-48.9364	205.06
381550	-37.1328	344.035	-58.18	342.145	-26.8322	293.75	-63.234	271.439	-72.0707	226.275	-49.6596	343.501	-16.2445	325.95	-49.0194	204.7
381551	-37.1747	344.344	-58.2451	342.603	-27.0089	293.949	-63.484	271.457	-72.2464	225.695	-49.7138	343.878	-16.2895	326.206	-49.1013	204.34
381552	-37.2158	344.654	-58.3085	343.063	-27.1854	294.148	-63.7339	271.475	-72.4204	225.103	-49.7669	344.256	-16.3342	326.463	-49.182	203.978
381553	-37.256	344.964	-58.3703	343.525	-27.3616	294.348	-63.9838	271.493	-72.5925	224.5	-49.8187	344.635	-16.3786	326.719	-49.2616	203.615
381554	-37.2955	345.274	-58.4304	343.988	-27.5375	294.548	-64.2337	271.512	-72.7628	223.885	-49.8693	345.015	-16.4228	326.976	-49.3401	203.251
381555	-37.3342	345.585	-58.4888	344.453	-27.7132	294.749	-64.4836	271.531	-72.9312	223.258	-49.9187	345.396	-16.4666	327.232	-49.4174	202.886
381556	-37.3721	345.896	-58.5456	344.919	-27.8885	294.95	-64.7335	271.551	-73.0976	222.619	-49.9668	345.777	-16.5101	327.489	-49.4935	202.519
381557	-37.4091	346.207	-58.6007	345.387	-28.0636	295.152	-64.9834	271.571	-73.262	221.968	-50.0137	346.159	-16.5533	327.746	-49.5684	202.152
381558	-37.4454	346.518	-58.6542	345.856	-28.2384	295.355	-65.2333	271.591	-73.4243	221.304	-50.0593	346.542	-16.5962	328.003	-49.6422	201.783
381559	-37.4808	346.83	-58.7058	346.327	-28.4129	295.558	-65.4832	271.611	-73.5845	220.628	-50.1037	346.925	-16.6388	328.26	-49.7148	201.413
381560	-37.5155	347.142	-58.7559	346.799	-28.5871	295.763	-65.7331	271.632	-73.7424	219.939	-50.1468	347.309	-16.6811	328.517	-49.7862	201.042
381561	-37.5493	347.455	-58.8041	347.272	-28.761	295.967	-65.983	271.654	-73.898	219.236	-50.1887	347.694	-16.7231	328.775	-49.8564	200.67
381562	-37.5824	347.767	-58.8507	347.747	-28.9346	296.173	-66.2329	271.675	-74.0513	218.521	-50.2293	348.08	-16.7648	329.032	-49.9254	200.297
381563	-37.6146	348.08	-58.8955	348.223	-29.1079	296.379	-66.4828	271.697	-74.2023	217.792	-50.2687	348.466	-16.8062	329.29	-49.9932	199.923
381564	-37.646	348.394	-58.9386	348.7	-29.2809	296.586	-66.7327	271.72	-74.3507	217.049	-50.3068	348.853	-16.8472	329.548	-50.0598	199.548
381565	-37.6765	348.707	-58.9799	349.178	-29.4536	296.793	-66.9826	271.743	-74.4965	216.293	-50.3436	349.24	-16.888	329.805	-50.1251	199.172
381566	-37.7063	349.021	-59.0195	349.657	-29.6259	297.002	-67.2325	271.766	-74.6397	215.522	-50.3791	349.628	-16.9284	330.063	-50.1892	198.794
381567	-37.7352	349.335	-59.0573	350.138	-29.798	297.211	-67.4824	271.79	-74.7803	214.738	-50.4133	350.017	-16.9686	330.321	-50.2521	198.416
381568	-37.7634	349.649	-59.0933	350.619	-29.9697	297.42	-67.7322	271.815	-74.918	213.94	-50.4463	350.406	-17.0084	330.579	-50.3137	198.037
381569	-37.7906	349.964	-59.1276	351.102	-30.1411	297.631	-67.9821	271.839	-75.0529	213.127	-50.478	350.795	-17.0479	330.838	-50.3741	197.657
381570	-37.8171	350.278	-59.1601	351.585	-30.3121	297.842	-68.232	271.865	-75.1848	212.3	-50.5084	351.185	-17.0871	331.096	-50.4333	197.275
381571	-37.8428	350.593	-59.1908	352.069	-30.4829	298.053	-68.4819	271.89	-75.3138	211.458	-50.5374	351.576	-17.1259	331.354	-50.4911	196.893
381572	-37.8676	350.908	-59.2197	352.555	-30.6533	298.266	-68.7317	271.917	-75.4396	210.602	-50.5652	351.967	-17.1645	331.613	-50.5478	196.51
381573	-37.8916	351.224	-59.2468	353.04	-30.8233	298.479	-68.9816	271.944	-75.5623	209.732	-50.5917	352.359	-17.2027	331.872	-50.6031	196.126
381574	-37.9147	351.539	-59.2721	353.527	-30.993	298.693	-69.2314	271.971	-75.6817	208.847	-50.6169	352.751	-17.2406	332.13	-50.6572	195.742
381575	-37.937	351.855	-59.2956	354.014	-31.1624	298.908	-69.4813	272	-75.7978	207.948	-50.6408	353.143	-17.2782	332.389	-50.7099	195.356
381576	-37.9585	352.171	-59.3173	354.502	-31.3314	299.124	-69.7311	272.028	-75.9105	207.035	-50.6634	353.536	-17.3155	332.648	-50.7615	194.969
381577	-37.9792	352.487	-59.3371	354.991	-31.5001	299.34	-69.981	272.058	-76.0196	206.107	-50.6846	353.929	-17.3525	332.907	-50.8117	194.582
381578	-37.999	352.803	-59.3552	355.48	-31.6684	299.557	-70.2308	272.088	-76.1252	205.166	-50.7046	354.322	-17.3891	333.166	-50.8606	194.193
381579	-38.018	353.12	-59.3714	355.97	-31.8363	299.775	-70.4807	272.119	-76.2271	204.21	-50.7232	354.716	-17.4254	333.426	-50.9082	193.804
381580	-38.0361	353.436	-59.3858	356.46	-32.0039	299.994	-70.7305	272.151	-76.3253	203.24	-50.7406	355.11	-17.4614	333.685	-50.9545	193.414
381581	-38.0534	353.753	-59.3984	356.95	-32.1711	300.213	-70.9803	272.183	-76.4196	202.257	-50.7566	355.505	-17.497	333.945	-50.9995	193.024
381582	-38.0699	354.07	-59.4091	357.441	-32.3379	300.433	-71.2301	272.216	-76.51	201.261	-50.7713	355.899	-17.5324	334.204	-51.0431	192.632
381583	-38.0855	354.387	-59.4181	357.932	-32.5044	300.654	-71.48	272.25	-76.5965	200.252	-50.7846	356.294	-17.5674	334.464	-51.0855	192.24
381584	-38.1003	354.704	-59.4251	358.424	-32.6705	300.876	-71.7298	272.285	-76.6788	199.231	-50.7967	356.689	-17.602	334.724	-51.1265	191.847
381585	-38.1143	355.021	-59.4304	358.915	-32.8362	301.099	-71.9796	272.32	-76.757	198.197	-50.8074	357.085	-17.6364	334.983	-51.1662	191.454
381586	-38.1274	355.339	-59.4338	359.407	-33.0015	301.322	-72.2294	272.357	-76.831	197.151	-50.8168	357.48	-17.6704	335.243	-51.2046	191.06
381587	-38.1396	355.656	-59.4354	359.899	-33.1664	301.547	-72.4792	272.395	-76.9007	196.095	-50.8248	357.876	-17.7041	335.503	-51.2416	190.665
381588	-38.151	355.974	-59.4351	0.390186	-33.331	301.772	-72.7289	272.433	-76.9661	195.027	-50.8316	358.271	-17.7375	335.764	-51.2773	190.269
381589	-38.1616	356.292	-59.433	0.88188	-33.4951	301.998	-72.9787	272.473	-77.027	193.949	-50.837	358.667	-17.7705	336.024	-51.3116	189.873
381590	-38.1713	356.609	-59.4291	1.37349	-33.6588	302.225	-73.2285	272.514	-77.0834	192.862	-50.8411	359.063	-17.8032	336.284	-51.3446	189.476
381591	-38.1802	356.927	-59.4233	1.86495	-33.8221	302.452	-73.4783	272.556	-77.1353	191.765	-50.8439	359.459	-17.8355	336.545	-51.3762	189.079
381592	-38.1883	357.245	-59.4157	2.35622	-33.985	302.681	-73.728	272.599	-77.1826	190.661	-50.8453	359.855	-17.8676	336.805	-51.4065	188.681
381593	-38.1955	357.563	-59.4063	2.84725	-34.1475	302.91	-73.9777	272.644	-77.2253	189.548	-50.8454	0.251004	-17.8992	337.066	-51.4354	188.283
381594	-38.2018	357.881	-59.395	3.33798	-34.3095	303.141	-74.2275	272.689	-77.2632	188.429	-50.8442	0.647008	-17.9306	337.327	-51.463	187.884
381595	-38.2073	358.199	-59.3819	3.82835	-34.4712	303.372	-74.4772	272.737	-77.2964	187.303	-50.8416	1.04298	-17.9616	337.587	-51.4892	187.485
381596	-38.212	358.518	-59.367	4.31833	-34.6324	303.604	-74.7269	272.785	-77.3248	186.172	-50.8377	1.4389	-17.9923	337.848	-51.514	187.085
381597	-38.2158	358.836	-59.3503	4.80784	-34.7932	303.837	-74.9766	272.835	-77.3484	185.037	-50.8325	1.83474	-18.0226	338.109	-51.5374	186.685
381598	-38.2187	359.154	-59.3317	5.29685	-34.9535	304.071	-75.2263	272.887	-77.3672	183.897	-50.826	2.23048	-18.0526	338.37	-51.5595	186.285
381599	-38.2208	359.472	-59.3113	5.7853	-35.1134	304.306	-75.476	272.941	-77.3811	182.755	-50.8181	2.6261	-18.0823	338.632	-51.5802	185.884
381600	-38.2221	359.791	-59.2891	6.27315	-35.2728	304.541	-75.7257	272.996	-77.3902	181.611	-50.8089	3.02158	-18.1116	338.893	-51.5995	185.483
