Time [min]	Location.AzimuthAngle [Deg]	Location.ElevationAngle [Deg]
90720	352.963	-44.5838
90721	353.311	-44.6017
90722	353.659	-44.6188
90723	354.006	-44.6349
90724	354.354	-44.6501
90725	354.703	-44.6644
90726	355.051	-44.6778
90727	355.399	-44.6902
90728	355.748	-44.7017
90729	356.097	-44.7123
90730	356.446	-44.722
90731	356.795	-44.7307
90732	357.144	-44.7385
90733	357.493	-44.7454
90734	357.842	-44.7513
90735	358.191	-44.7563
90736	358.541	-44.7604
90737	358.89	-44.7636
90738	359.24	-44.7658
90739	359.589	-44.7671
90740	359.938	-44.7675
90741	0.287698	-44.7669
90742	0.637124	-44.7654
90743	0.986529	-44.763
90744	1.3359	-44.7596
90745	1.68523	-44.7553
90746	2.0345	-44.7501
90747	2.38372	-44.7439
90748	2.73285	-44.7369
90749	3.0819	-44.7288
90750	3.43086	-44.7199
90751	3.77971	-44.71
90752	4.12844	-44.6993
90753	4.47705	-44.6875
90754	4.82552	-44.6749
90755	5.17384	-44.6613
90756	5.522	-44.6468
90757	5.87	-44.6314
90758	6.21782	-44.6151
90759	6.56545	-44.5978
90760	6.91288	-44.5797
90761	7.26011	-44.5606
90762	7.60711	-44.5406
90763	7.95389	-44.5196
90764	8.30043	-44.4978
90765	8.64672	-44.475
90766	8.99276	-44.4514
90767	9.33852	-44.4268
90768	9.68402	-44.4013
90769	10.0292	-44.3749
90770	10.3741	-44.3476
90771	10.7187	-44.3194
90772	11.063	-44.2903
90773	11.407	-44.2603
90774	11.7506	-44.2294
90775	12.0939	-44.1976
90776	12.4368	-44.1649
90777	12.7794	-44.1314
90778	13.1216	-44.0969
90779	13.4635	-44.0615
90780	13.8049	-44.0253
90781	14.146	-43.9882
90782	14.4866	-43.9502
90783	14.8269	-43.9113
90784	15.1667	-43.8715
90785	15.5061	-43.8309
90786	15.845	-43.7894
90787	16.1835	-43.747
90788	16.5216	-43.7038
90789	16.8592	-43.6597
90790	17.1963	-43.6148
90791	17.533	-43.5689
90792	17.8692	-43.5223
90793	18.2049	-43.4748
90794	18.5401	-43.4264
90795	18.8748	-43.3772
90796	19.2089	-43.3271
90797	19.5426	-43.2762
90798	19.8757	-43.2245
90799	20.2084	-43.1719
90800	20.5404	-43.1185
90801	20.872	-43.0643
90802	21.2029	-43.0093
90803	21.5334	-42.9534
90804	21.8632	-42.8967
90805	22.1925	-42.8392
90806	22.5212	-42.7809
90807	22.8494	-42.7218
90808	23.1769	-42.6619
90809	23.5039	-42.6011
90810	23.8303	-42.5396
90811	24.156	-42.4773
90812	24.4812	-42.4142
90813	24.8058	-42.3503
90814	25.1297	-42.2856
90815	25.453	-42.2202
90816	25.7757	-42.1539
90817	26.0978	-42.0869
90818	26.4192	-42.0191
90819	26.74	-41.9506
90820	27.0601	-41.8813
90821	27.3796	-41.8112
90822	27.6985	-41.7404
90823	28.0166	-41.6688
90824	28.3342	-41.5965
90825	28.6511	-41.5235
90826	28.9673	-41.4497
90827	29.2828	-41.3751
90828	29.5977	-41.2998
90829	29.9119	-41.2239
90830	30.2254	-41.1471
90831	30.5382	-41.0697
90832	30.8504	-40.9915
90833	31.1618	-40.9127
90834	31.4726	-40.8331
90835	31.7827	-40.7528
90836	32.0921	-40.6718
90837	32.4008	-40.5901
90838	32.7088	-40.5077
90839	33.0161	-40.4247
90840	33.3227	-40.3409
90841	33.6286	-40.2565
90842	33.9337	-40.1714
90843	34.2382	-40.0856
90844	34.542	-39.9992
90845	34.8451	-39.912
90846	35.1474	-39.8243
90847	35.449	-39.7358
90848	35.75	-39.6467
90849	36.0502	-39.557
90850	36.3497	-39.4666
90851	36.6485	-39.3756
90852	36.9465	-39.2839
90853	37.2439	-39.1916
90854	37.5405	-39.0987
90855	37.8364	-39.0051
90856	38.1316	-38.911
90857	38.4261	-38.8162
90858	38.7198	-38.7208
90859	39.0128	-38.6247
90860	39.3052	-38.5281
90861	39.5968	-38.4309
90862	39.8876	-38.3331
90863	40.1778	-38.2347
90864	40.4672	-38.1357
90865	40.7559	-38.0361
90866	41.0439	-37.9359
90867	41.3312	-37.8352
90868	41.6178	-37.7338
90869	41.9036	-37.632
90870	42.1888	-37.5295
90871	42.4732	-37.4265
90872	42.7569	-37.3229
90873	43.0399	-37.2188
90874	43.3222	-37.1141
90875	43.6038	-37.0089
90876	43.8846	-36.9031
90877	44.1648	-36.7968
90878	44.4442	-36.69
90879	44.723	-36.5826
90880	45.001	-36.4747
90881	45.2784	-36.3663
90882	45.555	-36.2573
90883	45.831	-36.1479
90884	46.1062	-36.0379
90885	46.3807	-35.9274
90886	46.6546	-35.8165
90887	46.9278	-35.705
90888	47.2002	-35.593
90889	47.472	-35.4805
90890	47.7431	-35.3676
90891	48.0135	-35.2542
90892	48.2833	-35.1402
90893	48.5523	-35.0258
90894	48.8207	-34.911
90895	49.0884	-34.7956
90896	49.3554	-34.6798
90897	49.6218	-34.5636
90898	49.8874	-34.4468
90899	50.1525	-34.3296
90900	50.4168	-34.212
90901	50.6805	-34.0939
90902	50.9435	-33.9754
90903	51.2059	-33.8564
90904	51.4676	-33.737
90905	51.7287	-33.6172
90906	51.9891	-33.4969
90907	52.2489	-33.3762
90908	52.508	-33.2551
90909	52.7665	-33.1336
90910	53.0244	-33.0116
90911	53.2816	-32.8893
90912	53.5382	-32.7665
90913	53.7942	-32.6433
90914	54.0495	-32.5198
90915	54.3042	-32.3958
90916	54.5583	-32.2714
90917	54.8118	-32.1466
90918	55.0646	-32.0215
90919	55.3169	-31.8959
90920	55.5685	-31.77
90921	55.8196	-31.6437
90922	56.07	-31.517
90923	56.3198	-31.39
90924	56.5691	-31.2626
90925	56.8177	-31.1348
90926	57.0658	-31.0067
90927	57.3133	-30.8782
90928	57.5602	-30.7493
90929	57.8065	-30.6201
90930	58.0522	-30.4906
90931	58.2974	-30.3607
90932	58.542	-30.2304
90933	58.786	-30.0998
90934	59.0294	-29.9689
90935	59.2723	-29.8377
90936	59.5147	-29.7061
90937	59.7565	-29.5742
90938	59.9977	-29.4419
90939	60.2384	-29.3094
90940	60.4786	-29.1765
90941	60.7182	-29.0433
90942	60.9572	-28.9098
90943	61.1958	-28.776
90944	61.4338	-28.6419
90945	61.6713	-28.5075
90946	61.9083	-28.3728
90947	62.1447	-28.2378
90948	62.3806	-28.1025
90949	62.6161	-27.9669
90950	62.851	-27.831
90951	63.0854	-27.6948
90952	63.3193	-27.5584
90953	63.5527	-27.4216
90954	63.7856	-27.2846
90955	64.018	-27.1473
90956	64.2499	-27.0098
90957	64.4814	-26.872
90958	64.7123	-26.7339
90959	64.9428	-26.5955
90960	65.1729	-26.4569
90961	65.4024	-26.3181
90962	65.6315	-26.179
90963	65.8601	-26.0396
90964	66.0882	-25.9
90965	66.3159	-25.7601
90966	66.5432	-25.62
90967	66.77	-25.4797
90968	66.9963	-25.3391
90969	67.2223	-25.1983
90970	67.4477	-25.0572
90971	67.6728	-24.9159
90972	67.8974	-24.7744
90973	68.1216	-24.6327
90974	68.3453	-24.4907
90975	68.5686	-24.3486
90976	68.7916	-24.2062
90977	69.0141	-24.0636
90978	69.2362	-23.9207
90979	69.4578	-23.7777
90980	69.6791	-23.6345
90981	69.9	-23.491
90982	70.1205	-23.3474
90983	70.3406	-23.2036
90984	70.5603	-23.0595
90985	70.7796	-22.9153
90986	70.9985	-22.7709
90987	71.2171	-22.6262
90988	71.4353	-22.4814
90989	71.6531	-22.3365
90990	71.8705	-22.1913
90991	72.0876	-22.0459
90992	72.3043	-21.9004
90993	72.5207	-21.7547
90994	72.7367	-21.6088
90995	72.9523	-21.4628
90996	73.1677	-21.3166
90997	73.3826	-21.1702
90998	73.5972	-21.0237
90999	73.8115	-20.877
91000	74.0255	-20.7301
91001	74.2391	-20.5831
91002	74.4524	-20.4359
91003	74.6653	-20.2886
91004	74.878	-20.1411
91005	75.0903	-19.9935
91006	75.3023	-19.8457
91007	75.5141	-19.6978
91008	75.7255	-19.5498
91009	75.9366	-19.4016
91010	76.1474	-19.2533
91011	76.3579	-19.1048
91012	76.5681	-18.9562
91013	76.778	-18.8075
91014	76.9876	-18.6586
91015	77.197	-18.5097
91016	77.406	-18.3606
91017	77.6148	-18.2113
91018	77.8234	-18.062
91019	78.0316	-17.9125
91020	78.2396	-17.763
91021	78.4473	-17.6133
91022	78.6548	-17.4635
91023	78.862	-17.3136
91024	79.0689	-17.1636
91025	79.2756	-17.0135
91026	79.4821	-16.8633
91027	79.6883	-16.7129
91028	79.8943	-16.5625
91029	80.1	-16.412
91030	80.3055	-16.2614
91031	80.5108	-16.1107
91032	80.7158	-15.9599
91033	80.9206	-15.8091
91034	81.1252	-15.6581
91035	81.3296	-15.507
91036	81.5338	-15.3559
91037	81.7377	-15.2047
91038	81.9415	-15.0534
91039	82.145	-14.9021
91040	82.3484	-14.7506
91041	82.5515	-14.5991
91042	82.7544	-14.4476
91043	82.9572	-14.2959
91044	83.1598	-14.1442
91045	83.3621	-13.9924
91046	83.5643	-13.8406
91047	83.7663	-13.6887
91048	83.9682	-13.5367
91049	84.1698	-13.3847
91050	84.3713	-13.2327
91051	84.5727	-13.0805
91052	84.7738	-12.9284
91053	84.9748	-12.7761
91054	85.1757	-12.6239
91055	85.3763	-12.4716
91056	85.5769	-12.3192
91057	85.7773	-12.1668
91058	85.9775	-12.0144
91059	86.1776	-11.8619
91060	86.3776	-11.7094
91061	86.5774	-11.5569
91062	86.7771	-11.4043
91063	86.9766	-11.2517
91064	87.176	-11.0991
91065	87.3754	-10.9464
91066	87.5745	-10.7937
91067	87.7736	-10.641
91068	87.9725	-10.4883
91069	88.1714	-10.3356
91070	88.3701	-10.1828
91071	88.5687	-10.03
91072	88.7672	-9.87724
91073	88.9656	-9.72444
91074	89.164	-9.57163
91075	89.3622	-9.41882
91076	89.5603	-9.26599
91077	89.7583	-9.11317
91078	89.9563	-8.96034
91079	90.1542	-8.80751
91080	90.3519	-8.65468
91081	90.5496	-8.50186
91082	90.7473	-8.34904
91083	90.9448	-8.19623
91084	91.1423	-8.04343
91085	91.3398	-7.89063
91086	91.5371	-7.73785
91087	91.7344	-7.58509
91088	91.9317	-7.43234
91089	92.1289	-7.2796
91090	92.326	-7.12689
91091	92.5231	-6.9742
91092	92.7202	-6.82153
91093	92.9172	-6.66888
91094	93.1141	-6.51627
91095	93.3111	-6.36368
91096	93.5079	-6.21112
91097	93.7048	-6.05859
91098	93.9016	-5.9061
91099	94.0984	-5.75364
91100	94.2952	-5.60122
91101	94.492	-5.44884
91102	94.6887	-5.2965
91103	94.8855	-5.14421
91104	95.0822	-4.99195
91105	95.2789	-4.83975
91106	95.4756	-4.68759
91107	95.6723	-4.53548
91108	95.869	-4.38343
91109	96.0657	-4.23142
91110	96.2624	-4.07948
91111	96.4591	-3.92759
91112	96.6558	-3.77576
91113	96.8525	-3.62399
91114	97.0493	-3.47228
91115	97.2461	-3.32063
91116	97.4428	-3.16906
91117	97.6396	-3.01755
91118	97.8365	-2.86611
91119	98.0334	-2.71474
91120	98.2303	-2.56344
91121	98.4272	-2.41222
91122	98.6242	-2.26108
91123	98.8212	-2.11001
91124	99.0182	-1.95903
91125	99.2153	-1.80813
91126	99.4125	-1.65731
91127	99.6097	-1.50658
91128	99.8069	-1.35593
91129	100.004	-1.20538
91130	100.202	-1.05491
91131	100.399	-0.904541
91132	100.597	-0.754264
91133	100.794	-0.604085
91134	100.992	-0.454004
91135	101.189	-0.304023
91136	101.387	-0.154144
91137	101.585	-0.00436933
91138	101.783	0.1453
91139	101.981	0.294861
91140	102.179	0.444313
91141	102.377	0.593654
91142	102.576	0.742881
91143	102.774	0.891994
91144	102.972	1.04099
91145	103.171	1.18987
91146	103.37	1.33862
91147	103.568	1.48726
91148	103.767	1.63577
91149	103.966	1.78415
91150	104.165	1.93241
91151	104.365	2.08054
91152	104.564	2.22853
91153	104.763	2.37639
91154	104.963	2.52412
91155	105.163	2.67171
91156	105.362	2.81916
91157	105.562	2.96647
91158	105.763	3.11364
91159	105.963	3.26066
91160	106.163	3.40753
91161	106.364	3.55426
91162	106.564	3.70084
91163	106.765	3.84726
91164	106.966	3.99353
91165	107.167	4.13964
91166	107.368	4.2856
91167	107.57	4.43139
91168	107.771	4.57703
91169	107.973	4.7225
91170	108.175	4.8678
91171	108.377	5.01294
91172	108.579	5.15791
91173	108.781	5.3027
91174	108.984	5.44732
91175	109.187	5.59177
91176	109.39	5.73604
91177	109.593	5.88013
91178	109.796	6.02404
91179	109.999	6.16776
91180	110.203	6.3113
91181	110.407	6.45466
91182	110.611	6.59782
91183	110.815	6.74079
91184	111.019	6.88357
91185	111.224	7.02615
91186	111.429	7.16854
91187	111.634	7.31073
91188	111.839	7.45271
91189	112.045	7.59449
91190	112.25	7.73607
91191	112.456	7.87744
91192	112.662	8.0186
91193	112.868	8.15955
91194	113.075	8.30029
91195	113.282	8.44081
91196	113.489	8.58111
91197	113.696	8.72119
91198	113.903	8.86105
91199	114.111	9.00069
91200	114.319	9.1401
91201	114.527	9.27928
91202	114.735	9.41824
91203	114.944	9.55696
91204	115.153	9.69544
91205	115.362	9.83369
91206	115.571	9.9717
91207	115.781	10.1095
91208	115.991	10.247
91209	116.201	10.3843
91210	116.411	10.5213
91211	116.622	10.6581
91212	116.833	10.7946
91213	117.044	10.9309
91214	117.256	11.0669
91215	117.467	11.2027
91216	117.679	11.3382
91217	117.891	11.4735
91218	118.104	11.6085
91219	118.317	11.7432
91220	118.53	11.8776
91221	118.743	12.0118
91222	118.957	12.1457
91223	119.171	12.2793
91224	119.385	12.4127
91225	119.6	12.5457
91226	119.815	12.6785
91227	120.03	12.811
91228	120.245	12.9432
91229	120.461	13.0752
91230	120.677	13.2068
91231	120.893	13.3381
91232	121.11	13.4692
91233	121.327	13.5999
91234	121.544	13.7304
91235	121.762	13.8605
91236	121.98	13.9903
91237	122.198	14.1199
91238	122.416	14.2491
91239	122.635	14.378
91240	122.854	14.5066
91241	123.074	14.6349
91242	123.294	14.7628
91243	123.514	14.8905
91244	123.734	15.0178
91245	123.955	15.1448
91246	124.176	15.2714
91247	124.398	15.3978
91248	124.62	15.5238
91249	124.842	15.6494
91250	125.064	15.7747
91251	125.287	15.8997
91252	125.51	16.0243
91253	125.734	16.1486
91254	125.958	16.2726
91255	126.182	16.3962
91256	126.407	16.5194
91257	126.632	16.6423
91258	126.857	16.7648
91259	127.083	16.887
91260	127.309	17.0088
91261	127.535	17.1302
91262	127.762	17.2513
91263	127.989	17.372
91264	128.216	17.4923
91265	128.444	17.6123
91266	128.673	17.7319
91267	128.901	17.8511
91268	129.13	17.9699
91269	129.359	18.0883
91270	129.589	18.2064
91271	129.819	18.324
91272	130.05	18.4413
91273	130.281	18.5581
91274	130.512	18.6746
91275	130.743	18.7907
91276	130.975	18.9063
91277	131.208	19.0216
91278	131.441	19.1365
91279	131.674	19.2509
91280	131.907	19.3649
91281	132.141	19.4785
91282	132.376	19.5917
91283	132.61	19.7045
91284	132.846	19.8168
91285	133.081	19.9288
91286	133.317	20.0403
91287	133.553	20.1513
91288	133.79	20.262
91289	134.027	20.3722
91290	134.265	20.4819
91291	134.503	20.5912
91292	134.741	20.7001
91293	134.98	20.8085
91294	135.219	20.9165
91295	135.458	21.024
91296	135.698	21.1311
91297	135.939	21.2377
91298	136.179	21.3438
91299	136.421	21.4495
91300	136.662	21.5547
91301	136.904	21.6595
91302	137.147	21.7637
91303	137.389	21.8676
91304	137.633	21.9709
91305	137.876	22.0737
91306	138.12	22.1761
91307	138.365	22.278
91308	138.61	22.3794
91309	138.855	22.4803
91310	139.101	22.5807
91311	139.347	22.6806
91312	139.593	22.7801
91313	139.84	22.879
91314	140.088	22.9774
91315	140.335	23.0753
91316	140.584	23.1727
91317	140.832	23.2696
91318	141.081	23.366
91319	141.331	23.4619
91320	141.581	23.5572
91321	141.831	23.652
91322	142.082	23.7463
91323	142.333	23.8401
91324	142.584	23.9334
91325	142.836	24.0261
91326	143.088	24.1182
91327	143.341	24.2099
91328	143.594	24.301
91329	143.848	24.3915
91330	144.102	24.4815
91331	144.357	24.571
91332	144.611	24.6599
91333	144.867	24.7483
91334	145.122	24.8361
91335	145.379	24.9233
91336	145.635	25.01
91337	145.892	25.0961
91338	146.149	25.1817
91339	146.407	25.2666
91340	146.665	25.351
91341	146.924	25.4349
91342	147.183	25.5181
91343	147.442	25.6008
91344	147.702	25.6829
91345	147.962	25.7644
91346	148.223	25.8453
91347	148.484	25.9257
91348	148.745	26.0054
91349	149.007	26.0845
91350	149.269	26.1631
91351	149.532	26.241
91352	149.795	26.3184
91353	150.058	26.3951
91354	150.322	26.4712
91355	150.586	26.5467
91356	150.851	26.6216
91357	151.116	26.6959
91358	151.381	26.7696
91359	151.647	26.8426
91360	151.913	26.915
91361	152.18	26.9868
91362	152.446	27.058
91363	152.714	27.1286
91364	152.981	27.1985
91365	153.249	27.2677
91366	153.518	27.3364
91367	153.787	27.4044
91368	154.056	27.4717
91369	154.325	27.5384
91370	154.595	27.6045
91371	154.865	27.6699
91372	155.136	27.7346
91373	155.407	27.7987
91374	155.678	27.8622
91375	155.95	27.925
91376	156.222	27.9871
91377	156.494	28.0486
91378	156.767	28.1093
91379	157.04	28.1695
91380	157.314	28.2289
91381	157.587	28.2877
91382	157.861	28.3458
91383	158.136	28.4033
91384	158.411	28.46
91385	158.686	28.5161
91386	158.961	28.5715
91387	159.237	28.6262
91388	159.513	28.6802
91389	159.789	28.7336
91390	160.066	28.7862
91391	160.343	28.8382
91392	160.62	28.8894
91393	160.898	28.94
91394	161.176	28.9898
91395	161.454	29.039
91396	161.732	29.0874
91397	162.011	29.1352
91398	162.29	29.1822
91399	162.569	29.2286
91400	162.849	29.2742
91401	163.129	29.3191
91402	163.409	29.3633
91403	163.689	29.4068
91404	163.97	29.4495
91405	164.251	29.4916
91406	164.532	29.5329
91407	164.814	29.5735
91408	165.095	29.6134
91409	165.377	29.6526
91410	165.66	29.691
91411	165.942	29.7287
91412	166.225	29.7657
91413	166.508	29.8019
91414	166.791	29.8374
91415	167.074	29.8722
91416	167.358	29.9062
91417	167.641	29.9395
91418	167.925	29.9721
91419	168.21	30.0039
91420	168.494	30.035
91421	168.779	30.0653
91422	169.063	30.0949
91423	169.348	30.1238
91424	169.633	30.1519
91425	169.919	30.1792
91426	170.204	30.2058
91427	170.49	30.2317
91428	170.776	30.2568
91429	171.062	30.2811
91430	171.348	30.3047
91431	171.634	30.3276
91432	171.921	30.3497
91433	172.207	30.371
91434	172.494	30.3916
91435	172.781	30.4114
91436	173.068	30.4305
91437	173.355	30.4488
91438	173.642	30.4664
91439	173.929	30.4832
91440	174.217	30.4992
91441	174.504	30.5144
91442	174.792	30.5289
91443	175.08	30.5427
91444	175.367	30.5557
91445	175.655	30.5679
91446	175.943	30.5793
91447	176.231	30.59
91448	176.519	30.5999
91449	176.808	30.6091
91450	177.096	30.6175
91451	177.384	30.6251
91452	177.672	30.6319
91453	177.961	30.638
91454	178.249	30.6433
91455	178.538	30.6479
91456	178.826	30.6516
91457	179.115	30.6547
91458	179.403	30.6569
91459	179.692	30.6584
91460	179.98	30.6591
91461	180.269	30.659
91462	180.557	30.6582
91463	180.846	30.6566
91464	181.134	30.6542
91465	181.423	30.6511
91466	181.711	30.6472
91467	182	30.6425
91468	182.288	30.6371
91469	182.576	30.6308
91470	182.865	30.6239
91471	183.153	30.6161
91472	183.441	30.6076
91473	183.729	30.5983
91474	184.017	30.5883
91475	184.305	30.5775
91476	184.593	30.5659
91477	184.881	30.5536
91478	185.169	30.5405
91479	185.457	30.5266
91480	185.744	30.512
91481	186.032	30.4966
91482	186.319	30.4805
91483	186.607	30.4635
91484	186.894	30.4459
91485	187.181	30.4274
91486	187.468	30.4082
91487	187.755	30.3883
91488	188.041	30.3676
91489	188.328	30.3461
91490	188.614	30.3239
91491	188.901	30.301
91492	189.187	30.2772
91493	189.473	30.2528
91494	189.758	30.2275
91495	190.044	30.2016
91496	190.33	30.1748
91497	190.615	30.1474
91498	190.9	30.1191
91499	191.185	30.0902
91500	191.47	30.0605
91501	191.754	30.03
91502	192.039	29.9988
91503	192.323	29.9669
91504	192.607	29.9342
91505	192.891	29.9008
91506	193.174	29.8666
91507	193.457	29.8317
91508	193.741	29.7961
91509	194.023	29.7598
91510	194.306	29.7227
91511	194.588	29.6849
91512	194.871	29.6463
91513	195.153	29.6071
91514	195.434	29.5671
91515	195.716	29.5264
91516	195.997	29.4849
91517	196.278	29.4428
91518	196.559	29.3999
91519	196.839	29.3563
91520	197.119	29.312
91521	197.399	29.267
91522	197.679	29.2213
91523	197.958	29.1748
91524	198.237	29.1277
91525	198.516	29.0798
91526	198.794	29.0313
91527	199.072	28.982
91528	199.35	28.9321
91529	199.628	28.8814
91530	199.905	28.8301
91531	200.182	28.778
91532	200.459	28.7253
91533	200.735	28.6719
91534	201.011	28.6177
91535	201.287	28.5629
91536	201.562	28.5075
91537	201.837	28.4513
91538	202.112	28.3944
91539	202.386	28.3369
91540	202.66	28.2787
91541	202.934	28.2198
91542	203.207	28.1603
91543	203.48	28.1001
91544	203.753	28.0392
91545	204.025	27.9776
91546	204.297	27.9154
91547	204.569	27.8526
91548	204.84	27.789
91549	205.111	27.7249
91550	205.382	27.66
91551	205.652	27.5945
91552	205.922	27.5284
91553	206.191	27.4616
91554	206.461	27.3942
91555	206.729	27.3261
91556	206.998	27.2574
91557	207.266	27.1881
91558	207.533	27.1181
91559	207.801	27.0475
91560	208.068	26.9763
91561	208.334	26.9044
91562	208.6	26.8319
91563	208.866	26.7588
91564	209.131	26.6851
91565	209.396	26.6107
91566	209.661	26.5357
91567	209.925	26.4602
91568	210.189	26.384
91569	210.452	26.3072
91570	210.715	26.2298
91571	210.978	26.1518
91572	211.24	26.0732
91573	211.502	25.994
91574	211.763	25.9142
91575	212.024	25.8338
91576	212.285	25.7529
91577	212.545	25.6713
91578	212.805	25.5892
91579	213.064	25.5064
91580	213.323	25.4231
91581	213.582	25.3393
91582	213.84	25.2548
91583	214.098	25.1698
91584	214.355	25.0842
91585	214.612	24.998
91586	214.868	24.9113
91587	215.124	24.824
91588	215.38	24.7362
91589	215.635	24.6478
91590	215.89	24.5589
91591	216.145	24.4694
91592	216.399	24.3793
91593	216.652	24.2888
91594	216.906	24.1976
91595	217.158	24.106
91596	217.411	24.0138
91597	217.663	23.921
91598	217.914	23.8277
91599	218.165	23.7339
91600	218.416	23.6396
91601	218.667	23.5448
91602	218.916	23.4494
91603	219.166	23.3535
91604	219.415	23.2571
91605	219.664	23.1602
91606	219.912	23.0628
91607	220.16	22.9649
91608	220.407	22.8664
91609	220.654	22.7675
91610	220.901	22.6681
91611	221.147	22.5681
91612	221.392	22.4677
91613	221.638	22.3668
91614	221.883	22.2654
91615	222.127	22.1635
91616	222.371	22.0612
91617	222.615	21.9583
91618	222.858	21.855
91619	223.101	21.7512
91620	223.343	21.6469
91621	223.585	21.5422
91622	223.827	21.4369
91623	224.068	21.3313
91624	224.309	21.2251
91625	224.549	21.1185
91626	224.789	21.0115
91627	225.029	20.904
91628	225.268	20.796
91629	225.507	20.6876
91630	225.745	20.5788
91631	225.983	20.4695
91632	226.221	20.3598
91633	226.458	20.2496
91634	226.695	20.139
91635	226.931	20.0279
91636	227.167	19.9165
91637	227.403	19.8046
91638	227.638	19.6923
91639	227.873	19.5795
91640	228.107	19.4664
91641	228.341	19.3528
91642	228.575	19.2388
91643	228.808	19.1244
91644	229.041	19.0096
91645	229.273	18.8943
91646	229.505	18.7787
91647	229.737	18.6627
91648	229.968	18.5463
91649	230.199	18.4295
91650	230.43	18.3122
91651	230.66	18.1946
91652	230.89	18.0766
91653	231.119	17.9583
91654	231.348	17.8395
91655	231.577	17.7204
91656	231.805	17.6008
91657	232.033	17.4809
91658	232.261	17.3607
91659	232.488	17.24
91660	232.715	17.119
91661	232.941	16.9976
91662	233.168	16.8759
91663	233.393	16.7538
91664	233.619	16.6313
91665	233.844	16.5085
91666	234.068	16.3854
91667	234.293	16.2618
91668	234.517	16.138
91669	234.741	16.0138
91670	234.964	15.8892
91671	235.187	15.7643
91672	235.409	15.6391
91673	235.632	15.5135
91674	235.854	15.3876
91675	236.075	15.2613
91676	236.297	15.1348
91677	236.517	15.0079
91678	236.738	14.8806
91679	236.958	14.7531
91680	237.178	14.6252
91681	237.398	14.497
91682	237.617	14.3685
91683	237.836	14.2397
91684	238.055	14.1106
91685	238.273	13.9812
91686	238.491	13.8514
91687	238.709	13.7214
91688	238.926	13.5911
91689	239.143	13.4604
91690	239.36	13.3295
91691	239.577	13.1983
91692	239.793	13.0667
91693	240.009	12.9349
91694	240.224	12.8028
91695	240.44	12.6704
91696	240.655	12.5378
91697	240.869	12.4048
91698	241.084	12.2716
91699	241.298	12.1381
91700	241.512	12.0043
91701	241.725	11.8703
91702	241.938	11.7359
91703	242.151	11.6014
91704	242.364	11.4665
91705	242.577	11.3314
91706	242.789	11.196
91707	243.001	11.0604
91708	243.212	10.9245
91709	243.424	10.7884
91710	243.635	10.652
91711	243.845	10.5153
91712	244.056	10.3784
91713	244.266	10.2413
91714	244.476	10.1039
91715	244.686	9.9663
91716	244.896	9.82844
91717	245.105	9.69034
91718	245.314	9.55201
91719	245.523	9.41345
91720	245.731	9.27465
91721	245.94	9.13563
91722	246.148	8.99638
91723	246.356	8.8569
91724	246.563	8.71721
91725	246.771	8.57729
91726	246.978	8.43716
91727	247.185	8.29681
91728	247.392	8.15625
91729	247.598	8.01547
91730	247.804	7.87449
91731	248.011	7.7333
91732	248.216	7.5919
91733	248.422	7.4503
91734	248.628	7.30849
91735	248.833	7.16649
91736	249.038	7.02429
91737	249.243	6.8819
91738	249.447	6.73931
91739	249.652	6.59653
91740	249.856	6.45356
91741	250.06	6.3104
91742	250.264	6.16706
91743	250.468	6.02353
91744	250.671	5.87982
91745	250.874	5.73594
91746	251.078	5.59187
91747	251.281	5.44763
91748	251.483	5.30322
91749	251.686	5.15863
91750	251.888	5.01388
91751	252.091	4.86896
91752	252.293	4.72387
91753	252.495	4.57862
91754	252.697	4.4332
91755	252.898	4.28763
91756	253.1	4.1419
91757	253.301	3.99601
91758	253.502	3.84997
91759	253.703	3.70377
91760	253.904	3.55743
91761	254.105	3.41093
91762	254.306	3.26429
91763	254.506	3.11751
91764	254.707	2.97058
91765	254.907	2.82351
91766	255.107	2.67631
91767	255.307	2.52896
91768	255.507	2.38148
91769	255.707	2.23387
91770	255.906	2.08613
91771	256.106	1.93825
91772	256.305	1.79025
91773	256.504	1.64213
91774	256.704	1.49388
91775	256.903	1.3455
91776	257.102	1.19701
91777	257.301	1.0484
91778	257.499	0.89967
91779	257.698	0.750827
91780	257.897	0.601871
91781	258.095	0.452804
91782	258.294	0.303629
91783	258.492	0.154346
91784	258.69	0.00495697
91785	258.888	-0.144535
91786	259.086	-0.294129
91787	259.285	-0.443823
91788	259.482	-0.593615
91789	259.68	-0.743504
91790	259.878	-0.893487
91791	260.076	-1.04356
91792	260.274	-1.19373
91793	260.471	-1.34398
91794	260.669	-1.49433
91795	260.866	-1.64476
91796	261.064	-1.79527
91797	261.261	-1.94586
91798	261.459	-2.09653
91799	261.656	-2.24729
91800	261.854	-2.39811
91801	262.051	-2.54902
91802	262.248	-2.69999
91803	262.445	-2.85104
91804	262.643	-3.00215
91805	262.84	-3.15333
91806	263.037	-3.30458
91807	263.234	-3.45589
91808	263.431	-3.60727
91809	263.628	-3.7587
91810	263.825	-3.91019
91811	264.023	-4.06174
91812	264.22	-4.21335
91813	264.417	-4.365
91814	264.614	-4.51671
91815	264.811	-4.66847
91816	265.008	-4.82027
91817	265.205	-4.97212
91818	265.402	-5.12402
91819	265.599	-5.27595
91820	265.796	-5.42793
91821	265.994	-5.57994
91822	266.191	-5.73199
91823	266.388	-5.88408
91824	266.585	-6.0362
91825	266.783	-6.18835
91826	266.98	-6.34053
91827	267.177	-6.49274
91828	267.375	-6.64497
91829	267.572	-6.79723
91830	267.77	-6.94951
91831	267.967	-7.10181
91832	268.165	-7.25413
91833	268.362	-7.40647
91834	268.56	-7.55882
91835	268.758	-7.71119
91836	268.955	-7.86356
91837	269.153	-8.01595
91838	269.351	-8.16834
91839	269.549	-8.32074
91840	269.747	-8.47315
91841	269.946	-8.62555
91842	270.144	-8.77796
91843	270.342	-8.93037
91844	270.541	-9.08277
91845	270.739	-9.23517
91846	270.938	-9.38756
91847	271.136	-9.53994
91848	271.335	-9.69231
91849	271.534	-9.84467
91850	271.733	-9.99701
91851	271.932	-10.1493
91852	272.131	-10.3017
91853	272.331	-10.4539
91854	272.53	-10.6062
91855	272.73	-10.7585
91856	272.929	-10.9107
91857	273.129	-11.0629
91858	273.329	-11.215
91859	273.529	-11.3672
91860	273.729	-11.5193
91861	273.929	-11.6713
91862	274.13	-11.8234
91863	274.331	-11.9754
91864	274.531	-12.1273
91865	274.732	-12.2792
91866	274.933	-12.4311
91867	275.134	-12.5829
91868	275.336	-12.7347
91869	275.537	-12.8864
91870	275.739	-13.0381
91871	275.941	-13.1897
91872	276.143	-13.3412
91873	276.345	-13.4927
91874	276.547	-13.6442
91875	276.75	-13.7955
91876	276.953	-13.9469
91877	277.156	-14.0981
91878	277.359	-14.2493
91879	277.562	-14.4004
91880	277.765	-14.5515
91881	277.969	-14.7024
91882	278.173	-14.8533
91883	278.377	-15.0041
91884	278.581	-15.1549
91885	278.786	-15.3055
91886	278.991	-15.4561
91887	279.195	-15.6066
91888	279.401	-15.757
91889	279.606	-15.9073
91890	279.812	-16.0575
91891	280.017	-16.2076
91892	280.223	-16.3577
91893	280.43	-16.5076
91894	280.636	-16.6574
91895	280.843	-16.8072
91896	281.05	-16.9568
91897	281.257	-17.1063
91898	281.465	-17.2557
91899	281.673	-17.405
91900	281.881	-17.5542
91901	282.089	-17.7033
91902	282.298	-17.8523
91903	282.506	-18.0011
91904	282.715	-18.1498
91905	282.925	-18.2984
91906	283.135	-18.4469
91907	283.344	-18.5953
91908	283.555	-18.7435
91909	283.765	-18.8916
91910	283.976	-19.0395
91911	284.187	-19.1873
91912	284.398	-19.335
91913	284.61	-19.4825
91914	284.822	-19.6299
91915	285.034	-19.7772
91916	285.247	-19.9243
91917	285.46	-20.0713
91918	285.673	-20.2181
91919	285.887	-20.3647
91920	286.101	-20.5112
91921	286.315	-20.6575
91922	286.53	-20.8037
91923	286.744	-20.9497
91924	286.96	-21.0956
91925	287.175	-21.2413
91926	287.391	-21.3868
91927	287.607	-21.5321
91928	287.824	-21.6773
91929	288.041	-21.8223
91930	288.258	-21.9671
91931	288.476	-22.1117
91932	288.694	-22.2561
91933	288.912	-22.4004
91934	289.131	-22.5444
91935	289.35	-22.6883
91936	289.57	-22.832
91937	289.79	-22.9755
91938	290.01	-23.1188
91939	290.231	-23.2619
91940	290.452	-23.4047
91941	290.674	-23.5474
91942	290.896	-23.6899
91943	291.118	-23.8321
91944	291.341	-23.9742
91945	291.564	-24.116
91946	291.787	-24.2576
91947	292.011	-24.399
91948	292.236	-24.5402
91949	292.46	-24.6811
91950	292.686	-24.8218
91951	292.911	-24.9623
91952	293.137	-25.1025
91953	293.364	-25.2425
91954	293.591	-25.3823
91955	293.818	-25.5218
91956	294.046	-25.6611
91957	294.275	-25.8001
91958	294.503	-25.9389
91959	294.733	-26.0774
91960	294.962	-26.2157
91961	295.192	-26.3537
91962	295.423	-26.4914
91963	295.654	-26.6289
91964	295.886	-26.7661
91965	296.118	-26.9031
91966	296.35	-27.0397
91967	296.583	-27.1761
91968	296.817	-27.3123
91969	297.051	-27.4481
91970	297.286	-27.5837
91971	297.521	-27.7189
91972	297.756	-27.8539
91973	297.992	-27.9886
91974	298.229	-28.123
91975	298.466	-28.2571
91976	298.703	-28.3909
91977	298.941	-28.5244
91978	299.18	-28.6575
91979	299.419	-28.7904
91980	299.659	-28.923
91981	299.899	-29.0552
91982	300.14	-29.1871
91983	300.381	-29.3187
91984	300.623	-29.45
91985	300.865	-29.5809
91986	301.108	-29.7115
91987	301.352	-29.8418
91988	301.596	-29.9717
91989	301.84	-30.1013
91990	302.086	-30.2306
91991	302.331	-30.3595
91992	302.578	-30.488
91993	302.825	-30.6162
91994	303.072	-30.7441
91995	303.32	-30.8716
91996	303.569	-30.9987
91997	303.818	-31.1254
91998	304.068	-31.2518
91999	304.318	-31.3778
92000	304.569	-31.5035
92001	304.821	-31.6287
92002	305.073	-31.7536
92003	305.326	-31.8781
92004	305.579	-32.0021
92005	305.833	-32.1258
92006	306.088	-32.2491
92007	306.343	-32.372
92008	306.599	-32.4945
92009	306.855	-32.6166
92010	307.112	-32.7383
92011	307.37	-32.8596
92012	307.629	-32.9804
92013	307.888	-33.1008
92014	308.147	-33.2208
92015	308.407	-33.3404
92016	308.668	-33.4596
92017	308.93	-33.5783
92018	309.192	-33.6965
92019	309.455	-33.8144
92020	309.718	-33.9317
92021	309.983	-34.0487
92022	310.247	-34.1652
92023	310.513	-34.2812
92024	310.779	-34.3967
92025	311.046	-34.5118
92026	311.313	-34.6265
92027	311.581	-34.7406
92028	311.85	-34.8543
92029	312.12	-34.9675
92030	312.39	-35.0802
92031	312.661	-35.1925
92032	312.932	-35.3042
92033	313.204	-35.4155
92034	313.477	-35.5262
92035	313.751	-35.6365
92036	314.025	-35.7462
92037	314.3	-35.8555
92038	314.575	-35.9642
92039	314.851	-36.0724
92040	315.128	-36.1801
92041	315.406	-36.2873
92042	315.684	-36.3939
92043	315.963	-36.5001
92044	316.243	-36.6056
92045	316.524	-36.7107
92046	316.805	-36.8152
92047	317.087	-36.9191
92048	317.369	-37.0225
92049	317.652	-37.1254
92050	317.936	-37.2276
92051	318.221	-37.3294
92052	318.506	-37.4305
92053	318.792	-37.5311
92054	319.079	-37.6311
92055	319.367	-37.7305
92056	319.655	-37.8294
92057	319.944	-37.9277
92058	320.233	-38.0253
92059	320.523	-38.1224
92060	320.814	-38.2189
92061	321.106	-38.3148
92062	321.398	-38.4101
92063	321.692	-38.5047
92064	321.985	-38.5988
92065	322.28	-38.6922
92066	322.575	-38.785
92067	322.871	-38.8772
92068	323.168	-38.9688
92069	323.465	-39.0597
92070	323.763	-39.15
92071	324.062	-39.2396
92072	324.361	-39.3286
92073	324.662	-39.417
92074	324.962	-39.5047
92075	325.264	-39.5917
92076	325.566	-39.6781
92077	325.869	-39.7638
92078	326.173	-39.8489
92079	326.477	-39.9332
92080	326.782	-40.0169
92081	327.088	-40.0999
92082	327.394	-40.1823
92083	327.701	-40.2639
92084	328.009	-40.3449
92085	328.318	-40.4251
92086	328.627	-40.5047
92087	328.937	-40.5835
92088	329.247	-40.6616
92089	329.558	-40.7391
92090	329.87	-40.8158
92091	330.183	-40.8918
92092	330.496	-40.9671
92093	330.81	-41.0416
92094	331.124	-41.1154
92095	331.439	-41.1885
92096	331.755	-41.2608
92097	332.071	-41.3324
92098	332.388	-41.4033
92099	332.706	-41.4734
92100	333.025	-41.5427
92101	333.344	-41.6113
92102	333.663	-41.6792
92103	333.983	-41.7462
92104	334.304	-41.8125
92105	334.626	-41.878
92106	334.948	-41.9428
92107	335.271	-42.0068
92108	335.594	-42.07
92109	335.918	-42.1324
92110	336.242	-42.194
92111	336.567	-42.2548
92112	336.893	-42.3149
92113	337.219	-42.3741
92114	337.546	-42.4325
92115	337.873	-42.4902
92116	338.201	-42.547
92117	338.53	-42.603
92118	338.859	-42.6582
92119	339.188	-42.7126
92120	339.518	-42.7661
92121	339.849	-42.8188
92122	340.18	-42.8707
92123	340.512	-42.9218
92124	340.844	-42.972
92125	341.177	-43.0214
92126	341.51	-43.07
92127	341.844	-43.1177
92128	342.178	-43.1646
92129	342.512	-43.2106
92130	342.848	-43.2558
92131	343.183	-43.3001
92132	343.519	-43.3436
92133	343.856	-43.3862
92134	344.192	-43.4279
92135	344.53	-43.4688
92136	344.868	-43.5088
92137	345.206	-43.5479
92138	345.544	-43.5862
92139	345.883	-43.6236
92140	346.223	-43.6601
92141	346.562	-43.6958
92142	346.903	-43.7305
92143	347.243	-43.7644
92144	347.584	-43.7974
92145	347.925	-43.8295
92146	348.267	-43.8607
92147	348.609	-43.891
92148	348.951	-43.9205
92149	349.293	-43.949
92150	349.636	-43.9766
92151	349.979	-44.0034
92152	350.323	-44.0292
92153	350.666	-44.0542
92154	351.01	-44.0782
92155	351.354	-44.1013
92156	351.699	-44.1235
92157	352.043	-44.1449
92158	352.388	-44.1653
92159	352.733	-44.1848
92160	353.079	-44.2033
298080	356.546	-18.1728
298081	356.794	-18.1818
298082	357.042	-18.1902
298083	357.29	-18.1979
298084	357.538	-18.2049
298085	357.786	-18.2113
298086	358.034	-18.217
298087	358.283	-18.2221
298088	358.531	-18.2265
298089	358.779	-18.2302
298090	359.027	-18.2333
298091	359.276	-18.2357
298092	359.524	-18.2375
298093	359.772	-18.2386
298094	0.0205447	-18.239
298095	0.268857	-18.2388
298096	0.517168	-18.2379
298097	0.765473	-18.2363
298098	1.01377	-18.2341
298099	1.26206	-18.2313
298100	1.51033	-18.2277
298101	1.75858	-18.2235
298102	2.00682	-18.2187
298103	2.25503	-18.2132
298104	2.50322	-18.207
298105	2.75138	-18.2001
298106	2.99951	-18.1927
298107	3.24761	-18.1845
298108	3.49567	-18.1757
298109	3.74369	-18.1662
298110	3.99166	-18.1561
298111	4.23959	-18.1453
298112	4.48747	-18.1338
298113	4.73531	-18.1217
298114	4.98308	-18.1089
298115	5.2308	-18.0955
298116	5.47847	-18.0814
298117	5.72606	-18.0667
298118	5.9736	-18.0513
298119	6.22106	-18.0352
298120	6.46846	-18.0185
298121	6.71578	-18.0012
298122	6.96303	-17.9832
298123	7.21019	-17.9645
298124	7.45728	-17.9452
298125	7.70428	-17.9252
298126	7.95119	-17.9046
298127	8.19801	-17.8833
298128	8.44474	-17.8614
298129	8.69138	-17.8388
298130	8.93791	-17.8156
298131	9.18435	-17.7917
298132	9.43068	-17.7672
298133	9.67691	-17.742
298134	9.92303	-17.7162
298135	10.169	-17.6897
298136	10.4149	-17.6626
298137	10.6607	-17.6349
298138	10.9064	-17.6065
298139	11.1519	-17.5774
298140	11.3973	-17.5478
298141	11.6426	-17.5174
298142	11.8878	-17.4865
298143	12.1328	-17.4549
298144	12.3777	-17.4227
298145	12.6224	-17.3898
298146	12.867	-17.3563
298147	13.1115	-17.3221
298148	13.3558	-17.2874
298149	13.6	-17.252
298150	13.8441	-17.2159
298151	14.088	-17.1792
298152	14.3317	-17.1419
298153	14.5753	-17.104
298154	14.8187	-17.0654
298155	15.0619	-17.0263
298156	15.305	-16.9865
298157	15.548	-16.946
298158	15.7907	-16.905
298159	16.0333	-16.8633
298160	16.2758	-16.821
298161	16.518	-16.7781
298162	16.7601	-16.7345
298163	17.002	-16.6904
298164	17.2437	-16.6456
298165	17.4853	-16.6002
298166	17.7266	-16.5542
298167	17.9678	-16.5076
298168	18.2088	-16.4604
298169	18.4496	-16.4125
298170	18.6902	-16.3641
298171	18.9306	-16.315
298172	19.1708	-16.2654
298173	19.4108	-16.2151
298174	19.6506	-16.1643
298175	19.8902	-16.1128
298176	20.1296	-16.0608
298177	20.3688	-16.0081
298178	20.6078	-15.9548
298179	20.8466	-15.901
298180	21.0852	-15.8465
298181	21.3236	-15.7915
298182	21.5618	-15.7359
298183	21.7997	-15.6796
298184	22.0374	-15.6228
298185	22.2749	-15.5654
298186	22.5122	-15.5075
298187	22.7493	-15.4489
298188	22.9862	-15.3898
298189	23.2228	-15.33
298190	23.4592	-15.2697
298191	23.6953	-15.2088
298192	23.9313	-15.1474
298193	24.167	-15.0853
298194	24.4025	-15.0227
298195	24.6377	-14.9596
298196	24.8727	-14.8958
298197	25.1075	-14.8315
298198	25.3421	-14.7666
298199	25.5764	-14.7012
298200	25.8104	-14.6352
298201	26.0443	-14.5686
298202	26.2778	-14.5015
298203	26.5112	-14.4338
298204	26.7443	-14.3656
298205	26.9771	-14.2968
298206	27.2097	-14.2274
298207	27.4421	-14.1575
298208	27.6742	-14.0871
298209	27.9061	-14.0161
298210	28.1377	-13.9445
298211	28.3691	-13.8725
298212	28.6002	-13.7998
298213	28.831	-13.7267
298214	29.0616	-13.653
298215	29.292	-13.5787
298216	29.5221	-13.5039
298217	29.7519	-13.4286
298218	29.9815	-13.3528
298219	30.2108	-13.2764
298220	30.4399	-13.1995
298221	30.6687	-13.1221
298222	30.8972	-13.0442
298223	31.1255	-12.9657
298224	31.3536	-12.8867
298225	31.5813	-12.8072
298226	31.8088	-12.7272
298227	32.0361	-12.6466
298228	32.263	-12.5656
298229	32.4897	-12.484
298230	32.7162	-12.4019
298231	32.9424	-12.3194
298232	33.1683	-12.2363
298233	33.394	-12.1527
298234	33.6193	-12.0686
298235	33.8445	-11.984
298236	34.0693	-11.8989
298237	34.2939	-11.8133
298238	34.5182	-11.7273
298239	34.7423	-11.6407
298240	34.9661	-11.5536
298241	35.1896	-11.4661
298242	35.4128	-11.3781
298243	35.6358	-11.2895
298244	35.8585	-11.2005
298245	36.081	-11.1111
298246	36.3031	-11.0211
298247	36.525	-10.9307
298248	36.7467	-10.8397
298249	36.968	-10.7484
298250	37.1891	-10.6565
298251	37.41	-10.5642
298252	37.6305	-10.4714
298253	37.8508	-10.3781
298254	38.0708	-10.2844
298255	38.2906	-10.1902
298256	38.5101	-10.0956
298257	38.7293	-10.0005
298258	38.9482	-9.90494
298259	39.1669	-9.80894
298260	39.3853	-9.71248
298261	39.6035	-9.61557
298262	39.8214	-9.51822
298263	40.039	-9.42042
298264	40.2563	-9.32218
298265	40.4734	-9.22349
298266	40.6902	-9.12437
298267	40.9068	-9.02481
298268	41.123	-8.92481
298269	41.339	-8.82438
298270	41.5548	-8.72351
298271	41.7703	-8.62222
298272	41.9855	-8.5205
298273	42.2005	-8.41835
298274	42.4152	-8.31578
298275	42.6296	-8.21279
298276	42.8438	-8.10938
298277	43.0577	-8.00554
298278	43.2713	-7.9013
298279	43.4847	-7.79663
298280	43.6978	-7.69156
298281	43.9107	-7.58608
298282	44.1233	-7.48018
298283	44.3357	-7.37389
298284	44.5478	-7.26718
298285	44.7596	-7.16008
298286	44.9712	-7.05257
298287	45.1825	-6.94467
298288	45.3936	-6.83636
298289	45.6044	-6.72767
298290	45.815	-6.61858
298291	46.0253	-6.5091
298292	46.2354	-6.39923
298293	46.4452	-6.28898
298294	46.6547	-6.17834
298295	46.8641	-6.06731
298296	47.0731	-5.95591
298297	47.2819	-5.84413
298298	47.4905	-5.73197
298299	47.6988	-5.61943
298300	47.9069	-5.50652
298301	48.1148	-5.39324
298302	48.3224	-5.27959
298303	48.5297	-5.16557
298304	48.7369	-5.05119
298305	48.9437	-4.93644
298306	49.1504	-4.82133
298307	49.3568	-4.70587
298308	49.563	-4.59004
298309	49.7689	-4.47386
298310	49.9746	-4.35732
298311	50.1801	-4.24043
298312	50.3853	-4.12319
298313	50.5903	-4.0056
298314	50.7951	-3.88767
298315	50.9996	-3.76939
298316	51.2039	-3.65077
298317	51.408	-3.5318
298318	51.6119	-3.4125
298319	51.8156	-3.29286
298320	52.019	-3.17289
298321	52.2222	-3.05258
298322	52.4252	-2.93194
298323	52.6279	-2.81097
298324	52.8305	-2.68968
298325	53.0328	-2.56805
298326	53.2349	-2.44611
298327	53.4368	-2.32384
298328	53.6385	-2.20125
298329	53.84	-2.07834
298330	54.0413	-1.95512
298331	54.2423	-1.83158
298332	54.4432	-1.70773
298333	54.6439	-1.58357
298334	54.8443	-1.4591
298335	55.0446	-1.33432
298336	55.2446	-1.20923
298337	55.4445	-1.08384
298338	55.6441	-0.958154
298339	55.8436	-0.832164
298340	56.0428	-0.705875
298341	56.2419	-0.57929
298342	56.4408	-0.452411
298343	56.6394	-0.325239
298344	56.8379	-0.197776
298345	57.0362	-0.0700234
298346	57.2344	0.0580163
298347	57.4323	0.186341
298348	57.6301	0.31495
298349	57.8276	0.443841
298350	58.025	0.573013
298351	58.2222	0.702462
298352	58.4193	0.832188
298353	58.6162	0.962189
298354	58.8128	1.09246
298355	59.0094	1.22301
298356	59.2057	1.35382
298357	59.4019	1.48491
298358	59.5979	1.61625
298359	59.7938	1.74787
298360	59.9895	1.87974
298361	60.185	2.01188
298362	60.3804	2.14427
298363	60.5756	2.27692
298364	60.7706	2.40983
298365	60.9656	2.54299
298366	61.1603	2.67641
298367	61.3549	2.81007
298368	61.5494	2.94398
298369	61.7437	3.07814
298370	61.9378	3.21254
298371	62.1318	3.34719
298372	62.3257	3.48208
298373	62.5195	3.61721
298374	62.7131	3.75257
298375	62.9065	3.88817
298376	63.0998	4.02401
298377	63.293	4.16008
298378	63.4861	4.29638
298379	63.679	4.43291
298380	63.8719	4.56967
298381	64.0645	4.70666
298382	64.2571	4.84387
298383	64.4495	4.9813
298384	64.6419	5.11895
298385	64.8341	5.25683
298386	65.0262	5.39492
298387	65.2182	5.53322
298388	65.41	5.67175
298389	65.6018	5.81048
298390	65.7934	5.94942
298391	65.985	6.08858
298392	66.1764	6.22794
298393	66.3678	6.36751
298394	66.559	6.50728
298395	66.7502	6.64725
298396	66.9412	6.78743
298397	67.1322	6.92781
298398	67.3231	7.06838
298399	67.5138	7.20915
298400	67.7045	7.35011
298401	67.8952	7.49127
298402	68.0857	7.63261
298403	68.2761	7.77415
298404	68.4665	7.91587
298405	68.6568	8.05778
298406	68.847	8.19988
298407	69.0372	8.34216
298408	69.2273	8.48462
298409	69.4173	8.62725
298410	69.6072	8.77007
298411	69.7971	8.91306
298412	69.987	9.05623
298413	70.1767	9.19957
298414	70.3665	9.34308
298415	70.5561	9.48677
298416	70.7457	9.63062
298417	70.9353	9.77463
298418	71.1248	9.91882
298419	71.3143	10.0632
298420	71.5037	10.2077
298421	71.6931	10.3523
298422	71.8825	10.4972
298423	72.0718	10.6421
298424	72.2611	10.7873
298425	72.4503	10.9326
298426	72.6395	11.078
298427	72.8287	11.2236
298428	73.0179	11.3694
298429	73.2071	11.5152
298430	73.3962	11.6613
298431	73.5853	11.8075
298432	73.7744	11.9538
298433	73.9635	12.1002
298434	74.1526	12.2468
298435	74.3417	12.3936
298436	74.5308	12.5405
298437	74.7198	12.6875
298438	74.9089	12.8346
298439	75.098	12.9819
298440	75.2871	13.1293
298441	75.4762	13.2768
298442	75.6653	13.4245
298443	75.8544	13.5723
298444	76.0435	13.7202
298445	76.2327	13.8682
298446	76.4219	14.0163
298447	76.6111	14.1646
298448	76.8003	14.313
298449	76.9896	14.4615
298450	77.1788	14.6101
298451	77.3682	14.7588
298452	77.5575	14.9077
298453	77.7469	15.0566
298454	77.9364	15.2056
298455	78.1258	15.3548
298456	78.3154	15.5041
298457	78.505	15.6534
298458	78.6946	15.8029
298459	78.8843	15.9524
298460	79.074	16.1021
298461	79.2639	16.2519
298462	79.4537	16.4017
298463	79.6437	16.5516
298464	79.8337	16.7017
298465	80.0238	16.8518
298466	80.214	17.002
298467	80.4042	17.1523
298468	80.5945	17.3027
298469	80.7849	17.4531
298470	80.9754	17.6037
298471	81.166	17.7543
298472	81.3567	17.905
298473	81.5475	18.0558
298474	81.7383	18.2066
298475	81.9293	18.3576
298476	82.1204	18.5086
298477	82.3116	18.6596
298478	82.5029	18.8108
298479	82.6943	18.962
298480	82.8858	19.1132
298481	83.0774	19.2646
298482	83.2692	19.416
298483	83.4611	19.5674
298484	83.6531	19.7189
298485	83.8453	19.8705
298486	84.0376	20.0221
298487	84.23	20.1738
298488	84.4226	20.3255
298489	84.6153	20.4773
298490	84.8082	20.6291
298491	85.0012	20.781
298492	85.1943	20.9329
298493	85.3877	21.0848
298494	85.5812	21.2368
298495	85.7748	21.3889
298496	85.9686	21.541
298497	86.1626	21.6931
298498	86.3568	21.8452
298499	86.5511	21.9974
298500	86.7456	22.1496
298501	86.9403	22.3019
298502	87.1352	22.4541
298503	87.3303	22.6064
298504	87.5256	22.7587
298505	87.7211	22.9111
298506	87.9167	23.0635
298507	88.1126	23.2158
298508	88.3087	23.3682
298509	88.505	23.5206
298510	88.7015	23.6731
298511	88.8983	23.8255
298512	89.0952	23.978
298513	89.2924	24.1304
298514	89.4898	24.2829
298515	89.6874	24.4354
298516	89.8853	24.5878
298517	90.0835	24.7403
298518	90.2818	24.8928
298519	90.4804	25.0453
298520	90.6793	25.1977
298521	90.8784	25.3502
298522	91.0778	25.5026
298523	91.2774	25.6551
298524	91.4773	25.8075
298525	91.6775	25.9599
298526	91.878	26.1123
298527	92.0787	26.2647
298528	92.2797	26.4171
298529	92.481	26.5694
298530	92.6826	26.7217
298531	92.8845	26.874
298532	93.0867	27.0263
298533	93.2892	27.1785
298534	93.492	27.3307
298535	93.6951	27.4829
298536	93.8985	27.635
298537	94.1022	27.7871
298538	94.3063	27.9392
298539	94.5107	28.0912
298540	94.7154	28.2432
298541	94.9204	28.3951
298542	95.1258	28.547
298543	95.3316	28.6989
298544	95.5376	28.8507
298545	95.7441	29.0024
298546	95.9509	29.1541
298547	96.158	29.3057
298548	96.3655	29.4573
298549	96.5734	29.6088
298550	96.7817	29.7602
298551	96.9903	29.9116
298552	97.1993	30.0629
298553	97.4087	30.2141
298554	97.6185	30.3653
298555	97.8287	30.5164
298556	98.0393	30.6674
298557	98.2503	30.8183
298558	98.4618	30.9692
298559	98.6736	31.1199
298560	98.8858	31.2706
298561	99.0985	31.4212
298562	99.3116	31.5717
298563	99.5251	31.7221
298564	99.7391	31.8724
298565	99.9535	32.0227
298566	100.168	32.1728
298567	100.384	32.3228
298568	100.6	32.4727
298569	100.816	32.6226
298570	101.032	32.7723
298571	101.25	32.9219
298572	101.467	33.0713
298573	101.685	33.2207
298574	101.904	33.37
298575	102.123	33.5191
298576	102.343	33.6681
298577	102.563	33.817
298578	102.784	33.9657
298579	103.005	34.1144
298580	103.226	34.2629
298581	103.449	34.4112
298582	103.671	34.5594
298583	103.895	34.7075
298584	104.118	34.8554
298585	104.343	35.0032
298586	104.568	35.1509
298587	104.793	35.2984
298588	105.019	35.4457
298589	105.246	35.5929
298590	105.473	35.7399
298591	105.701	35.8867
298592	105.929	36.0334
298593	106.158	36.18
298594	106.387	36.3263
298595	106.617	36.4725
298596	106.848	36.6185
298597	107.079	36.7644
298598	107.311	36.91
298599	107.544	37.0555
298600	107.777	37.2007
298601	108.011	37.3458
298602	108.245	37.4907
298603	108.481	37.6354
298604	108.716	37.7799
298605	108.953	37.9242
298606	109.19	38.0683
298607	109.428	38.2122
298608	109.666	38.3559
298609	109.905	38.4993
298610	110.145	38.6426
298611	110.386	38.7856
298612	110.627	38.9284
298613	110.869	39.071
298614	111.111	39.2133
298615	111.355	39.3554
298616	111.599	39.4973
298617	111.844	39.6389
298618	112.089	39.7803
298619	112.336	39.9215
298620	112.583	40.0624
298621	112.83	40.203
298622	113.079	40.3434
298623	113.328	40.4835
298624	113.578	40.6234
298625	113.829	40.763
298626	114.081	40.9023
298627	114.334	41.0413
298628	114.587	41.1801
298629	114.841	41.3186
298630	115.096	41.4568
298631	115.352	41.5947
298632	115.608	41.7323
298633	115.866	41.8697
298634	116.124	42.0067
298635	116.383	42.1434
298636	116.643	42.2798
298637	116.904	42.4159
298638	117.165	42.5517
298639	117.428	42.6872
298640	117.691	42.8224
298641	117.956	42.9572
298642	118.221	43.0917
298643	118.487	43.2258
298644	118.754	43.3596
298645	119.022	43.4931
298646	119.291	43.6263
298647	119.56	43.759
298648	119.831	43.8915
298649	120.103	44.0235
298650	120.375	44.1552
298651	120.649	44.2865
298652	120.923	44.4175
298653	121.199	44.5481
298654	121.475	44.6783
298655	121.753	44.8081
298656	122.031	44.9375
298657	122.311	45.0666
298658	122.591	45.1952
298659	122.872	45.3234
298660	123.155	45.4513
298661	123.438	45.5787
298662	123.723	45.7057
298663	124.008	45.8322
298664	124.295	45.9584
298665	124.582	46.0841
298666	124.871	46.2094
298667	125.161	46.3342
298668	125.451	46.4586
298669	125.743	46.5826
298670	126.036	46.706
298671	126.33	46.8291
298672	126.625	46.9516
298673	126.921	47.0737
298674	127.219	47.1954
298675	127.517	47.3165
298676	127.816	47.4371
298677	128.117	47.5573
298678	128.419	47.677
298679	128.722	47.7961
298680	129.026	47.9148
298681	129.331	48.033
298682	129.637	48.1506
298683	129.944	48.2677
298684	130.253	48.3843
298685	130.563	48.5004
298686	130.873	48.6159
298687	131.186	48.7308
298688	131.499	48.8453
298689	131.813	48.9591
298690	132.129	49.0725
298691	132.446	49.1852
298692	132.764	49.2974
298693	133.083	49.409
298694	133.403	49.52
298695	133.725	49.6304
298696	134.048	49.7403
298697	134.372	49.8495
298698	134.697	49.9581
298699	135.023	50.0662
298700	135.351	50.1736
298701	135.68	50.2804
298702	136.01	50.3865
298703	136.342	50.492
298704	136.674	50.5969
298705	137.008	50.7011
298706	137.343	50.8047
298707	137.68	50.9077
298708	138.017	51.0099
298709	138.356	51.1115
298710	138.696	51.2124
298711	139.038	51.3127
298712	139.38	51.4122
298713	139.724	51.5111
298714	140.069	51.6092
298715	140.416	51.7067
298716	140.764	51.8034
298717	141.113	51.8994
298718	141.463	51.9947
298719	141.814	52.0893
298720	142.167	52.1831
298721	142.521	52.2761
298722	142.876	52.3685
298723	143.233	52.46
298724	143.591	52.5509
298725	143.95	52.6409
298726	144.31	52.7302
298727	144.672	52.8186
298728	145.035	52.9063
298729	145.399	52.9932
298730	145.764	53.0793
298731	146.131	53.1646
298732	146.499	53.2491
298733	146.868	53.3328
298734	147.238	53.4156
298735	147.61	53.4976
298736	147.983	53.5788
298737	148.357	53.6591
298738	148.732	53.7386
298739	149.109	53.8173
298740	149.487	53.895
298741	149.866	53.9719
298742	150.246	54.0479
298743	150.627	54.1231
298744	151.01	54.1973
298745	151.393	54.2707
298746	151.778	54.3431
298747	152.164	54.4147
298748	152.552	54.4853
298749	152.94	54.5551
298750	153.33	54.6239
298751	153.72	54.6917
298752	154.112	54.7587
298753	154.505	54.8247
298754	154.899	54.8897
298755	155.295	54.9538
298756	155.691	55.017
298757	156.088	55.0792
298758	156.487	55.1404
298759	156.886	55.2006
298760	157.287	55.2599
298761	157.688	55.3181
298762	158.091	55.3754
298763	158.495	55.4317
298764	158.899	55.487
298765	159.305	55.5413
298766	159.712	55.5945
298767	160.119	55.6468
298768	160.528	55.698
298769	160.937	55.7482
298770	161.347	55.7974
298771	161.759	55.8455
298772	162.171	55.8926
298773	162.584	55.9386
298774	162.998	55.9836
298775	163.412	56.0275
298776	163.828	56.0704
298777	164.244	56.1122
298778	164.661	56.153
298779	165.079	56.1926
298780	165.498	56.2312
298781	165.917	56.2688
298782	166.337	56.3052
298783	166.758	56.3405
298784	167.18	56.3748
298785	167.602	56.4079
298786	168.025	56.44
298787	168.448	56.4709
298788	168.872	56.5008
298789	169.296	56.5295
298790	169.722	56.5571
298791	170.147	56.5837
298792	170.573	56.6091
298793	171	56.6333
298794	171.427	56.6565
298795	171.855	56.6785
298796	172.283	56.6994
298797	172.711	56.7192
298798	173.14	56.7378
298799	173.569	56.7553
298800	173.999	56.7717
298801	174.429	56.7869
298802	174.859	56.801
298803	175.289	56.8139
298804	175.72	56.8257
298805	176.151	56.8364
298806	176.582	56.8459
298807	177.013	56.8542
298808	177.445	56.8615
298809	177.877	56.8675
298810	178.308	56.8724
298811	178.74	56.8762
298812	179.172	56.8788
298813	179.604	56.8803
298814	180.036	56.8806
298815	180.468	56.8798
298816	180.9	56.8778
298817	181.331	56.8747
298818	181.763	56.8704
298819	182.195	56.865
298820	182.626	56.8584
298821	183.058	56.8507
298822	183.489	56.8418
298823	183.92	56.8318
298824	184.351	56.8206
298825	184.782	56.8083
298826	185.212	56.7949
298827	185.642	56.7803
298828	186.072	56.7645
298829	186.501	56.7477
298830	186.93	56.7297
298831	187.359	56.7105
298832	187.787	56.6903
298833	188.215	56.6689
298834	188.642	56.6463
298835	189.069	56.6227
298836	189.496	56.5979
298837	189.922	56.572
298838	190.347	56.545
298839	190.772	56.5169
298840	191.197	56.4876
298841	191.62	56.4573
298842	192.043	56.4259
298843	192.466	56.3933
298844	192.888	56.3597
298845	193.309	56.3249
298846	193.729	56.2891
298847	194.149	56.2522
298848	194.568	56.2142
298849	194.987	56.1751
298850	195.404	56.1349
298851	195.821	56.0937
298852	196.237	56.0514
298853	196.652	56.0081
298854	197.067	55.9637
298855	197.48	55.9182
298856	197.893	55.8717
298857	198.305	55.8241
298858	198.716	55.7755
298859	199.125	55.7259
298860	199.535	55.6752
298861	199.943	55.6235
298862	200.35	55.5708
298863	200.756	55.5171
298864	201.161	55.4623
298865	201.565	55.4066
298866	201.969	55.3499
298867	202.371	55.2921
298868	202.772	55.2334
298869	203.172	55.1737
298870	203.571	55.113
298871	203.969	55.0513
298872	204.366	54.9887
298873	204.762	54.9251
298874	205.157	54.8606
298875	205.55	54.7951
298876	205.943	54.7286
298877	206.334	54.6612
298878	206.725	54.5929
298879	207.114	54.5237
298880	207.502	54.4535
298881	207.888	54.3825
298882	208.274	54.3105
298883	208.659	54.2376
298884	209.042	54.1638
298885	209.424	54.0891
298886	209.805	54.0136
298887	210.184	53.9371
298888	210.563	53.8598
298889	210.94	53.7817
298890	211.316	53.7026
298891	211.691	53.6227
298892	212.065	53.542
298893	212.437	53.4604
298894	212.808	53.378
298895	213.178	53.2948
298896	213.547	53.2107
298897	213.914	53.1258
298898	214.28	53.0401
298899	214.645	52.9536
298900	215.009	52.8663
298901	215.371	52.7782
298902	215.732	52.6894
298903	216.092	52.5997
298904	216.45	52.5093
298905	216.808	52.4181
298906	217.164	52.3262
298907	217.519	52.2334
298908	217.872	52.14
298909	218.224	52.0458
298910	218.575	51.9509
298911	218.925	51.8552
298912	219.273	51.7588
298913	219.621	51.6617
298914	219.967	51.5639
298915	220.311	51.4654
298916	220.655	51.3662
298917	220.997	51.2663
298918	221.338	51.1657
298919	221.677	51.0644
298920	222.016	50.9625
298921	222.353	50.8599
298922	222.689	50.7566
298923	223.023	50.6526
298924	223.356	50.5481
298925	223.689	50.4428
298926	224.019	50.337
298927	224.349	50.2305
298928	224.678	50.1234
298929	225.005	50.0156
298930	225.331	49.9073
298931	225.655	49.7983
298932	225.979	49.6887
298933	226.301	49.5785
298934	226.622	49.4678
298935	226.942	49.3564
298936	227.261	49.2445
298937	227.578	49.132
298938	227.895	49.0189
298939	228.21	48.9053
298940	228.524	48.7911
298941	228.836	48.6764
298942	229.148	48.5611
298943	229.458	48.4452
298944	229.768	48.3289
298945	230.076	48.212
298946	230.383	48.0946
298947	230.688	47.9766
298948	230.993	47.8581
298949	231.296	47.7392
298950	231.599	47.6197
298951	231.9	47.4997
298952	232.2	47.3793
298953	232.499	47.2583
298954	232.797	47.1369
298955	233.094	47.015
298956	233.389	46.8926
298957	233.684	46.7697
298958	233.977	46.6464
298959	234.27	46.5226
298960	234.561	46.3984
298961	234.851	46.2737
298962	235.141	46.1485
298963	235.429	46.023
298964	235.716	45.897
298965	236.002	45.7705
298966	236.287	45.6437
298967	236.571	45.5164
298968	236.854	45.3887
298969	237.136	45.2606
298970	237.417	45.1321
298971	237.697	45.0032
298972	237.976	44.8739
298973	238.254	44.7442
298974	238.531	44.6141
298975	238.807	44.4836
298976	239.082	44.3527
298977	239.356	44.2215
298978	239.629	44.0899
298979	239.901	43.9579
298980	240.173	43.8256
298981	240.443	43.6929
298982	240.712	43.5599
298983	240.981	43.4265
298984	241.248	43.2927
298985	241.515	43.1586
298986	241.78	43.0242
298987	242.045	42.8895
298988	242.309	42.7544
298989	242.572	42.619
298990	242.834	42.4832
298991	243.096	42.3472
298992	243.356	42.2108
298993	243.616	42.0741
298994	243.874	41.9372
298995	244.132	41.7999
298996	244.389	41.6623
298997	244.645	41.5244
298998	244.901	41.3862
298999	245.155	41.2478
299000	245.409	41.109
299001	245.662	40.97
299002	245.914	40.8307
299003	246.165	40.6911
299004	246.416	40.5513
299005	246.665	40.4112
299006	246.914	40.2708
299007	247.163	40.1302
299008	247.41	39.9893
299009	247.657	39.8481
299010	247.903	39.7067
299011	248.148	39.5651
299012	248.392	39.4232
299013	248.636	39.2811
299014	248.879	39.1387
299015	249.121	38.9962
299016	249.363	38.8533
299017	249.604	38.7103
299018	249.844	38.567
299019	250.084	38.4235
299020	250.322	38.2798
299021	250.561	38.1359
299022	250.798	37.9918
299023	251.035	37.8475
299024	251.271	37.7029
299025	251.506	37.5582
299026	251.741	37.4132
299027	251.975	37.2681
299028	252.209	37.1228
299029	252.442	36.9772
299030	252.674	36.8315
299031	252.905	36.6857
299032	253.137	36.5396
299033	253.367	36.3933
299034	253.597	36.2469
299035	253.826	36.1003
299036	254.055	35.9535
299037	254.283	35.8066
299038	254.51	35.6595
299039	254.737	35.5123
299040	254.963	35.3648
299041	255.189	35.2173
299042	255.414	35.0695
299043	255.639	34.9217
299044	255.863	34.7736
299045	256.086	34.6255
299046	256.309	34.4772
299047	256.532	34.3287
299048	256.753	34.1801
299049	256.975	34.0314
299050	257.196	33.8825
299051	257.416	33.7335
299052	257.636	33.5844
299053	257.855	33.4352
299054	258.074	33.2858
299055	258.293	33.1363
299056	258.51	32.9867
299057	258.728	32.837
299058	258.945	32.6872
299059	259.161	32.5372
299060	259.377	32.3872
299061	259.593	32.237
299062	259.808	32.0868
299063	260.022	31.9364
299064	260.237	31.7859
299065	260.45	31.6354
299066	260.664	31.4847
299067	260.876	31.334
299068	261.089	31.1831
299069	261.301	31.0322
299070	261.512	30.8812
299071	261.724	30.7301
299072	261.934	30.579
299073	262.145	30.4277
299074	262.355	30.2764
299075	262.564	30.125
299076	262.773	29.9735
299077	262.982	29.822
299078	263.191	29.6704
299079	263.399	29.5187
299080	263.606	29.367
299081	263.814	29.2152
299082	264.02	29.0633
299083	264.227	28.9114
299084	264.433	28.7594
299085	264.639	28.6074
299086	264.845	28.4553
299087	265.05	28.3032
299088	265.255	28.151
299089	265.459	27.9988
299090	265.663	27.8465
299091	265.867	27.6942
299092	266.071	27.5419
299093	266.274	27.3895
299094	266.477	27.2371
299095	266.679	27.0846
299096	266.882	26.9322
299097	267.084	26.7797
299098	267.285	26.6271
299099	267.487	26.4746
299100	267.688	26.322
299101	267.889	26.1694
299102	268.089	26.0168
299103	268.289	25.8641
299104	268.489	25.7115
299105	268.689	25.5588
299106	268.889	25.4061
299107	269.088	25.2534
299108	269.287	25.1007
299109	269.485	24.948
299110	269.684	24.7953
299111	269.882	24.6426
299112	270.08	24.4898
299113	270.278	24.3371
299114	270.475	24.1844
299115	270.672	24.0317
299116	270.869	23.879
299117	271.066	23.7263
299118	271.263	23.5736
299119	271.459	23.4209
299120	271.655	23.2683
299121	271.851	23.1156
299122	272.047	22.963
299123	272.242	22.8104
299124	272.438	22.6578
299125	272.633	22.5052
299126	272.828	22.3527
299127	273.022	22.2002
299128	273.217	22.0477
299129	273.411	21.8952
299130	273.605	21.7428
299131	273.799	21.5904
299132	273.993	21.438
299133	274.187	21.2857
299134	274.38	21.1334
299135	274.574	20.9811
299136	274.767	20.8289
299137	274.96	20.6768
299138	275.153	20.5246
299139	275.345	20.3726
299140	275.538	20.2205
299141	275.73	20.0685
299142	275.923	19.9166
299143	276.115	19.7647
299144	276.307	19.6129
299145	276.499	19.4611
299146	276.69	19.3094
299147	276.882	19.1578
299148	277.074	19.0062
299149	277.265	18.8547
299150	277.456	18.7032
299151	277.647	18.5518
299152	277.838	18.4005
299153	278.029	18.2492
299154	278.22	18.098
299155	278.411	17.9469
299156	278.602	17.7959
299157	278.792	17.6449
299158	278.983	17.494
299159	279.173	17.3432
299160	279.363	17.1925
299161	279.554	17.0419
299162	279.744	16.8913
299163	279.934	16.7408
299164	280.124	16.5904
299165	280.314	16.4401
299166	280.503	16.2899
299167	280.693	16.1398
299168	280.883	15.9898
299169	281.072	15.8399
299170	281.262	15.69
299171	281.452	15.5403
299172	281.641	15.3907
299173	281.83	15.2411
299174	282.02	15.0917
299175	282.209	14.9424
299176	282.398	14.7932
299177	282.588	14.6441
299178	282.777	14.4951
299179	282.966	14.3462
299180	283.155	14.1974
299181	283.344	14.0487
299182	283.533	13.9002
299183	283.723	13.7518
299184	283.912	13.6035
299185	284.101	13.4553
299186	284.29	13.3072
299187	284.479	13.1593
299188	284.668	13.0115
299189	284.857	12.8638
299190	285.046	12.7162
299191	285.235	12.5688
299192	285.424	12.4215
299193	285.613	12.2744
299194	285.802	12.1273
299195	285.991	11.9805
299196	286.18	11.8337
299197	286.369	11.6871
299198	286.558	11.5406
299199	286.747	11.3943
299200	286.936	11.2481
299201	287.125	11.1021
299202	287.314	10.9562
299203	287.503	10.8105
299204	287.692	10.6649
299205	287.882	10.5195
299206	288.071	10.3742
299207	288.26	10.2291
299208	288.449	10.0841
299209	288.639	9.93932
299210	288.828	9.79468
299211	289.018	9.65021
299212	289.207	9.5059
299213	289.397	9.36175
299214	289.586	9.21777
299215	289.776	9.07396
299216	289.966	8.93032
299217	290.155	8.78686
299218	290.345	8.64357
299219	290.535	8.50045
299220	290.725	8.35751
299221	290.915	8.21475
299222	291.105	8.07217
299223	291.295	7.92978
299224	291.486	7.78756
299225	291.676	7.64554
299226	291.866	7.5037
299227	292.057	7.36205
299228	292.247	7.22058
299229	292.438	7.07932
299230	292.629	6.93824
299231	292.82	6.79736
299232	293.011	6.65668
299233	293.202	6.51619
299234	293.393	6.37591
299235	293.584	6.23583
299236	293.775	6.09595
299237	293.967	5.95628
299238	294.158	5.81681
299239	294.35	5.67756
299240	294.542	5.53851
299241	294.733	5.39968
299242	294.925	5.26105
299243	295.117	5.12265
299244	295.31	4.98446
299245	295.502	4.84649
299246	295.694	4.70874
299247	295.887	4.57122
299248	296.08	4.43391
299249	296.272	4.29684
299250	296.465	4.15999
299251	296.658	4.02337
299252	296.851	3.88697
299253	297.045	3.75082
299254	297.238	3.61489
299255	297.432	3.4792
299256	297.626	3.34375
299257	297.819	3.20854
299258	298.013	3.07357
299259	298.208	2.93884
299260	298.402	2.80436
299261	298.596	2.67012
299262	298.791	2.53613
299263	298.986	2.40239
299264	299.181	2.2689
299265	299.376	2.13567
299266	299.571	2.00269
299267	299.766	1.86996
299268	299.962	1.7375
299269	300.158	1.60529
299270	300.353	1.47335
299271	300.549	1.34167
299272	300.746	1.21025
299273	300.942	1.0791
299274	301.139	0.948226
299275	301.335	0.817618
299276	301.532	0.687282
299277	301.729	0.55722
299278	301.927	0.427435
299279	302.124	0.297927
299280	302.322	0.168699
299281	302.519	0.0397521
299282	302.717	-0.0889114
299283	302.916	-0.21729
299284	303.114	-0.345382
299285	303.312	-0.473185
299286	303.511	-0.600698
299287	303.71	-0.727918
299288	303.909	-0.854845
299289	304.108	-0.981475
299290	304.308	-1.10781
299291	304.508	-1.23384
299292	304.708	-1.35957
299293	304.908	-1.485
299294	305.108	-1.61013
299295	305.309	-1.73494
299296	305.509	-1.85945
299297	305.71	-1.98365
299298	305.911	-2.10754
299299	306.113	-2.23111
299300	306.314	-2.35436
299301	306.516	-2.4773
299302	306.718	-2.59992
299303	306.92	-2.72221
299304	307.123	-2.84419
299305	307.325	-2.96583
299306	307.528	-3.08715
299307	307.731	-3.20814
299308	307.934	-3.3288
299309	308.138	-3.44913
299310	308.342	-3.56912
299311	308.546	-3.68878
299312	308.75	-3.80809
299313	308.954	-3.92707
299314	309.159	-4.0457
299315	309.364	-4.16399
299316	309.569	-4.28194
299317	309.774	-4.39953
299318	309.98	-4.51678
299319	310.186	-4.63367
299320	310.392	-4.75021
299321	310.598	-4.8664
299322	310.804	-4.98222
299323	311.011	-5.09769
299324	311.218	-5.2128
299325	311.425	-5.32754
299326	311.633	-5.44192
299327	311.841	-5.55593
299328	312.049	-5.66957
299329	312.257	-5.78284
299330	312.465	-5.89573
299331	312.674	-6.00826
299332	312.883	-6.1204
299333	313.092	-6.23217
299334	313.302	-6.34355
299335	313.511	-6.45456
299336	313.721	-6.56517
299337	313.932	-6.67541
299338	314.142	-6.78525
299339	314.353	-6.8947
299340	314.564	-7.00376
299341	314.775	-7.11243
299342	314.986	-7.2207
299343	315.198	-7.32857
299344	315.41	-7.43604
299345	315.622	-7.54311
299346	315.835	-7.64977
299347	316.048	-7.75603
299348	316.261	-7.86188
299349	316.474	-7.96732
299350	316.688	-8.07235
299351	316.902	-8.17696
299352	317.116	-8.28116
299353	317.33	-8.38494
299354	317.545	-8.4883
299355	317.76	-8.59124
299356	317.975	-8.69376
299357	318.19	-8.79585
299358	318.406	-8.89751
299359	318.622	-8.99874
299360	318.838	-9.09954
299361	319.054	-9.1999
299362	319.271	-9.29984
299363	319.488	-9.39933
299364	319.706	-9.49838
299365	319.923	-9.59699
299366	320.141	-9.69516
299367	320.359	-9.79288
299368	320.577	-9.89016
299369	320.796	-9.98699
299370	321.015	-10.0834
299371	321.234	-10.1793
299372	321.454	-10.2747
299373	321.673	-10.3698
299374	321.893	-10.4643
299375	322.114	-10.5584
299376	322.334	-10.652
299377	322.555	-10.7452
299378	322.776	-10.8379
299379	322.998	-10.9301
299380	323.219	-11.0218
299381	323.441	-11.1131
299382	323.663	-11.2039
299383	323.886	-11.2943
299384	324.108	-11.3841
299385	324.331	-11.4735
299386	324.555	-11.5624
299387	324.778	-11.6508
299388	325.002	-11.7387
299389	325.226	-11.8261
299390	325.45	-11.913
299391	325.675	-11.9995
299392	325.9	-12.0854
299393	326.125	-12.1709
299394	326.351	-12.2558
299395	326.576	-12.3403
299396	326.802	-12.4243
299397	327.028	-12.5077
299398	327.255	-12.5907
299399	327.482	-12.6731
299400	327.709	-12.755
299401	327.936	-12.8364
299402	328.164	-12.9173
299403	328.391	-12.9977
299404	328.62	-13.0776
299405	328.848	-13.1569
299406	329.077	-13.2358
299407	329.305	-13.3141
299408	329.535	-13.3919
299409	329.764	-13.4691
299410	329.994	-13.5459
299411	330.224	-13.6221
299412	330.454	-13.6977
299413	330.684	-13.7729
299414	330.915	-13.8475
299415	331.146	-13.9215
299416	331.377	-13.9951
299417	331.609	-14.068
299418	331.84	-14.1405
299419	332.072	-14.2124
299420	332.305	-14.2837
299421	332.537	-14.3545
299422	332.77	-14.4248
299423	333.003	-14.4945
299424	333.236	-14.5636
299425	333.47	-14.6322
299426	333.703	-14.7003
299427	333.937	-14.7677
299428	334.172	-14.8346
299429	334.406	-14.901
299430	334.641	-14.9668
299431	334.876	-15.032
299432	335.111	-15.0967
299433	335.347	-15.1608
299434	335.582	-15.2243
299435	335.818	-15.2873
299436	336.054	-15.3496
299437	336.291	-15.4114
299438	336.527	-15.4727
299439	336.764	-15.5333
299440	337.001	-15.5934
299441	337.238	-15.6529
299442	337.476	-15.7118
299443	337.714	-15.7701
299444	337.952	-15.8278
299445	338.19	-15.885
299446	338.428	-15.9415
299447	338.667	-15.9975
299448	338.906	-16.0529
299449	339.145	-16.1076
299450	339.384	-16.1618
299451	339.624	-16.2154
299452	339.863	-16.2684
299453	340.103	-16.3208
299454	340.343	-16.3726
299455	340.584	-16.4238
299456	340.824	-16.4744
299457	341.065	-16.5243
299458	341.306	-16.5737
299459	341.547	-16.6225
299460	341.788	-16.6706
299461	342.03	-16.7182
299462	342.271	-16.7651
299463	342.513	-16.8114
299464	342.755	-16.8571
299465	342.998	-16.9022
299466	343.24	-16.9467
299467	343.483	-16.9905
299468	343.725	-17.0338
299469	343.968	-17.0764
299470	344.211	-17.1184
299471	344.455	-17.1597
299472	344.698	-17.2005
299473	344.942	-17.2406
299474	345.186	-17.2801
299475	345.43	-17.3189
299476	345.674	-17.3572
299477	345.918	-17.3948
299478	346.163	-17.4318
299479	346.407	-17.4681
299480	346.652	-17.5038
299481	346.897	-17.5389
299482	347.142	-17.5733
299483	347.387	-17.6071
299484	347.632	-17.6403
299485	347.878	-17.6728
299486	348.123	-17.7047
299487	348.369	-17.7359
299488	348.615	-17.7665
299489	348.861	-17.7965
299490	349.107	-17.8258
299491	349.354	-17.8545
299492	349.6	-17.8825
299493	349.846	-17.9099
299494	350.093	-17.9366
299495	350.34	-17.9627
299496	350.587	-17.9882
299497	350.833	-18.013
299498	351.081	-18.0371
299499	351.328	-18.0606
299500	351.575	-18.0835
299501	351.822	-18.1057
299502	352.07	-18.1272
299503	352.317	-18.1481
299504	352.565	-18.1683
299505	352.813	-18.1879
299506	353.06	-18.2068
299507	353.308	-18.2251
299508	353.556	-18.2427
299509	353.804	-18.2597
299510	354.052	-18.276
299511	354.301	-18.2916
299512	354.549	-18.3066
299513	354.797	-18.3209
299514	355.045	-18.3346
299515	355.294	-18.3476
299516	355.542	-18.36
299517	355.791	-18.3717
299518	356.04	-18.3827
299519	356.288	-18.3931
299520	356.537	-18.4028
380160	359.993	-37.8188
380161	0.309771	-37.8187
380162	0.626319	-37.8178
380163	0.942855	-37.8159
380164	1.25937	-37.8133
380165	1.57586	-37.8098
380166	1.89232	-37.8055
380167	2.20874	-37.8003
380168	2.5251	-37.7943
380169	2.84142	-37.7874
380170	3.15767	-37.7797
380171	3.47385	-37.7711
380172	3.78996	-37.7617
380173	4.10598	-37.7515
380174	4.42191	-37.7404
380175	4.73774	-37.7285
380176	5.05347	-37.7158
380177	5.36909	-37.7022
380178	5.68458	-37.6878
380179	5.99996	-37.6725
380180	6.31519	-37.6564
380181	6.63029	-37.6395
380182	6.94525	-37.6218
380183	7.26004	-37.6032
380184	7.57468	-37.5837
380185	7.88915	-37.5635
380186	8.20345	-37.5424
380187	8.51756	-37.5205
380188	8.83149	-37.4977
380189	9.14523	-37.4742
380190	9.45876	-37.4498
380191	9.77209	-37.4246
380192	10.0852	-37.3985
380193	10.3981	-37.3717
380194	10.7108	-37.344
380195	11.0232	-37.3155
380196	11.3354	-37.2862
380197	11.6473	-37.256
380198	11.959	-37.2251
380199	12.2705	-37.1933
380200	12.5816	-37.1608
380201	12.8925	-37.1274
380202	13.2031	-37.0932
380203	13.5135	-37.0582
380204	13.8235	-37.0224
380205	14.1333	-36.9859
380206	14.4428	-36.9485
380207	14.7519	-36.9103
380208	15.0607	-36.8713
380209	15.3693	-36.8315
380210	15.6775	-36.7909
380211	15.9853	-36.7496
380212	16.2929	-36.7074
380213	16.6001	-36.6645
380214	16.9069	-36.6208
380215	17.2134	-36.5763
380216	17.5196	-36.531
380217	17.8254	-36.4849
380218	18.1308	-36.4381
380219	18.4358	-36.3905
380220	18.7405	-36.3421
380221	19.0448	-36.2929
380222	19.3487	-36.243
380223	19.6522	-36.1924
380224	19.9554	-36.1409
380225	20.2581	-36.0887
380226	20.5604	-36.0358
380227	20.8623	-35.9821
380228	21.1638	-35.9276
380229	21.4649	-35.8724
380230	21.7656	-35.8164
380231	22.0658	-35.7597
380232	22.3656	-35.7023
380233	22.665	-35.6441
380234	22.9639	-35.5852
380235	23.2624	-35.5256
380236	23.5605	-35.4652
380237	23.8581	-35.4041
380238	24.1552	-35.3423
380239	24.4519	-35.2797
380240	24.7482	-35.2165
380241	25.044	-35.1525
380242	25.3393	-35.0878
380243	25.6341	-35.0224
380244	25.9285	-34.9563
380245	26.2224	-34.8894
380246	26.5158	-34.8219
380247	26.8087	-34.7537
380248	27.1011	-34.6848
380249	27.3931	-34.6152
380250	27.6846	-34.5449
380251	27.9756	-34.4739
380252	28.266	-34.4022
380253	28.556	-34.3298
380254	28.8455	-34.2568
380255	29.1345	-34.1831
380256	29.4229	-34.1087
380257	29.7109	-34.0337
380258	29.9984	-33.958
380259	30.2853	-33.8816
380260	30.5717	-33.8045
380261	30.8577	-33.7269
380262	31.1431	-33.6485
380263	31.4279	-33.5695
380264	31.7123	-33.4899
380265	31.9961	-33.4096
380266	32.2794	-33.3286
380267	32.5622	-33.2471
380268	32.8445	-33.1649
380269	33.1262	-33.082
380270	33.4074	-32.9986
380271	33.6881	-32.9145
380272	33.9682	-32.8298
380273	34.2478	-32.7445
380274	34.5268	-32.6585
380275	34.8054	-32.572
380276	35.0834	-32.4848
380277	35.3608	-32.397
380278	35.6377	-32.3087
380279	35.9141	-32.2197
380280	36.1899	-32.1301
380281	36.4652	-32.04
380282	36.74	-31.9492
380283	37.0142	-31.8579
380284	37.2878	-31.766
380285	37.5609	-31.6735
380286	37.8335	-31.5804
380287	38.1056	-31.4868
380288	38.3771	-31.3925
380289	38.648	-31.2978
380290	38.9184	-31.2024
380291	39.1883	-31.1065
380292	39.4576	-31.01
380293	39.7263	-30.913
380294	39.9946	-30.8154
380295	40.2623	-30.7173
380296	40.5294	-30.6187
380297	40.796	-30.5195
380298	41.062	-30.4197
380299	41.3276	-30.3195
380300	41.5925	-30.2187
380301	41.8569	-30.1173
380302	42.1208	-30.0155
380303	42.3842	-29.9131
380304	42.647	-29.8102
380305	42.9092	-29.7068
380306	43.171	-29.6029
380307	43.4322	-29.4985
380308	43.6928	-29.3935
380309	43.9529	-29.2881
380310	44.2125	-29.1822
380311	44.4715	-29.0757
380312	44.7301	-28.9688
380313	44.988	-28.8614
380314	45.2455	-28.7535
380315	45.5024	-28.6451
380316	45.7588	-28.5363
380317	46.0146	-28.4269
380318	46.27	-28.3171
380319	46.5248	-28.2069
380320	46.7791	-28.0961
380321	47.0328	-27.9849
380322	47.2861	-27.8732
380323	47.5388	-27.7611
380324	47.791	-27.6485
380325	48.0427	-27.5355
380326	48.2938	-27.422
380327	48.5445	-27.3081
380328	48.7946	-27.1937
380329	49.0443	-27.0789
380330	49.2934	-26.9637
380331	49.542	-26.848
380332	49.7901	-26.7319
380333	50.0377	-26.6154
380334	50.2848	-26.4984
380335	50.5314	-26.3811
380336	50.7775	-26.2633
380337	51.0231	-26.1451
380338	51.2682	-26.0265
380339	51.5128	-25.9074
380340	51.7569	-25.788
380341	52.0005	-25.6682
380342	52.2437	-25.5479
380343	52.4863	-25.4273
380344	52.7285	-25.3063
380345	52.9702	-25.1849
380346	53.2114	-25.0631
380347	53.4522	-24.9409
380348	53.6924	-24.8183
380349	53.9322	-24.6954
380350	54.1715	-24.5721
380351	54.4104	-24.4484
380352	54.6488	-24.3243
380353	54.8867	-24.1999
380354	55.1241	-24.0751
380355	55.3611	-23.9499
380356	55.5977	-23.8244
380357	55.8338	-23.6985
380358	56.0694	-23.5723
380359	56.3046	-23.4457
380360	56.5393	-23.3188
380361	56.7736	-23.1915
380362	57.0074	-23.0639
380363	57.2408	-22.936
380364	57.4738	-22.8077
380365	57.7063	-22.6791
380366	57.9384	-22.5501
380367	58.1701	-22.4209
380368	58.4013	-22.2913
380369	58.6321	-22.1613
380370	58.8625	-22.0311
380371	59.0925	-21.9005
380372	59.322	-21.7696
380373	59.5511	-21.6385
380374	59.7799	-21.507
380375	60.0082	-21.3751
380376	60.2361	-21.243
380377	60.4636	-21.1106
380378	60.6906	-20.9779
380379	60.9173	-20.8449
380380	61.1436	-20.7116
380381	61.3695	-20.578
380382	61.595	-20.4441
380383	61.8201	-20.31
380384	62.0448	-20.1755
380385	62.2692	-20.0408
380386	62.4931	-19.9058
380387	62.7167	-19.7705
380388	62.9399	-19.635
380389	63.1627	-19.4991
380390	63.3852	-19.3631
380391	63.6073	-19.2267
380392	63.829	-19.0901
380393	64.0503	-18.9532
380394	64.2713	-18.8161
380395	64.492	-18.6787
380396	64.7123	-18.541
380397	64.9322	-18.4031
380398	65.1518	-18.265
380399	65.371	-18.1266
380400	65.5899	-17.9879
380401	65.8085	-17.8491
380402	66.0267	-17.7099
380403	66.2446	-17.5706
380404	66.4621	-17.431
380405	66.6793	-17.2912
380406	66.8962	-17.1511
380407	67.1128	-17.0109
380408	67.329	-16.8704
380409	67.5449	-16.7297
380410	67.7605	-16.5887
380411	67.9758	-16.4476
380412	68.1908	-16.3062
380413	68.4055	-16.1646
380414	68.6199	-16.0228
380415	68.834	-15.8808
380416	69.0477	-15.7386
380417	69.2612	-15.5962
380418	69.4744	-15.4536
380419	69.6873	-15.3108
380420	69.8999	-15.1678
380421	70.1122	-15.0245
380422	70.3243	-14.8812
380423	70.536	-14.7376
380424	70.7475	-14.5938
380425	70.9587	-14.4498
380426	71.1696	-14.3057
380427	71.3803	-14.1614
380428	71.5907	-14.0169
380429	71.8009	-13.8722
380430	72.0108	-13.7273
380431	72.2204	-13.5823
380432	72.4298	-13.4371
380433	72.6389	-13.2917
380434	72.8478	-13.1462
380435	73.0564	-13.0005
380436	73.2648	-12.8546
380437	73.473	-12.7086
380438	73.6809	-12.5624
380439	73.8886	-12.4161
380440	74.096	-12.2696
380441	74.3033	-12.123
380442	74.5103	-11.9762
380443	74.7171	-11.8292
380444	74.9236	-11.6821
380445	75.13	-11.5349
380446	75.3361	-11.3876
380447	75.542	-11.2401
380448	75.7477	-11.0924
380449	75.9533	-10.9446
380450	76.1586	-10.7967
380451	76.3637	-10.6487
380452	76.5686	-10.5005
380453	76.7733	-10.3522
380454	76.9778	-10.2038
380455	77.1822	-10.0553
380456	77.3863	-9.90659
380457	77.5903	-9.7578
380458	77.7941	-9.6089
380459	77.9977	-9.45989
380460	78.2012	-9.31076
380461	78.4045	-9.16152
380462	78.6076	-9.01217
380463	78.8105	-8.86272
380464	79.0133	-8.71316
380465	79.2159	-8.5635
380466	79.4184	-8.41373
380467	79.6207	-8.26387
380468	79.8229	-8.11391
380469	80.0249	-7.96385
380470	80.2268	-7.81371
380471	80.4285	-7.66347
380472	80.6301	-7.51314
380473	80.8316	-7.36272
380474	81.0329	-7.21222
380475	81.2341	-7.06163
380476	81.4352	-6.91096
380477	81.6361	-6.76022
380478	81.8369	-6.60939
380479	82.0376	-6.45849
380480	82.2382	-6.30751
380481	82.4387	-6.15647
380482	82.639	-6.00535
380483	82.8393	-5.85416
380484	83.0394	-5.70291
380485	83.2395	-5.55159
380486	83.4394	-5.40021
380487	83.6393	-5.24877
380488	83.839	-5.09727
380489	84.0387	-4.94571
380490	84.2383	-4.7941
380491	84.4378	-4.64243
380492	84.6372	-4.49071
380493	84.8365	-4.33895
380494	85.0357	-4.18713
380495	85.2349	-4.03527
380496	85.434	-3.88336
380497	85.6331	-3.73142
380498	85.832	-3.57943
380499	86.031	-3.4274
380500	86.2298	-3.27534
380501	86.4286	-3.12324
380502	86.6273	-2.97111
380503	86.826	-2.81895
380504	87.0247	-2.66676
380505	87.2233	-2.51454
380506	87.4218	-2.36229
380507	87.6203	-2.21002
380508	87.8188	-2.05773
380509	88.0172	-1.90542
380510	88.2157	-1.75309
380511	88.414	-1.60075
380512	88.6124	-1.44839
380513	88.8107	-1.29602
380514	89.009	-1.14363
380515	89.2073	-0.991239
380516	89.4056	-0.838839
380517	89.6039	-0.686433
380518	89.8021	-0.534023
380519	90.0004	-0.381612
380520	90.1986	-0.229201
380521	90.3969	-0.0767913
380522	90.5951	0.0756145
380523	90.7934	0.228015
380524	90.9916	0.380408
380525	91.1899	0.532792
380526	91.3882	0.685164
380527	91.5865	0.837524
380528	91.7848	0.98987
380529	91.9831	1.1422
380530	92.1815	1.29451
380531	92.3799	1.4468
380532	92.5783	1.59907
380533	92.7768	1.75131
380534	92.9753	1.90353
380535	93.1738	2.05572
380536	93.3724	2.20789
380537	93.571	2.36002
380538	93.7697	2.51212
380539	93.9684	2.66418
380540	94.1671	2.81621
380541	94.366	2.96819
380542	94.5649	3.12014
380543	94.7638	3.27205
380544	94.9628	3.42391
380545	95.1619	3.57572
380546	95.361	3.72749
380547	95.5602	3.87921
380548	95.7595	4.03088
380549	95.9589	4.18249
380550	96.1583	4.33405
380551	96.3579	4.48555
380552	96.5575	4.63699
380553	96.7572	4.78837
380554	96.957	4.93969
380555	97.1569	5.09095
380556	97.3569	5.24213
380557	97.557	5.39325
380558	97.7572	5.5443
380559	97.9575	5.69528
380560	98.1579	5.84618
380561	98.3584	5.99701
380562	98.559	6.14776
380563	98.7598	6.29843
380564	98.9606	6.44902
380565	99.1616	6.59953
380566	99.3628	6.74994
380567	99.564	6.90028
380568	99.7654	7.05052
380569	99.9669	7.20067
380570	100.169	7.35073
380571	100.37	7.5007
380572	100.572	7.65056
380573	100.774	7.80033
380574	100.977	7.95
380575	101.179	8.09957
380576	101.382	8.24903
380577	101.584	8.39838
380578	101.787	8.54762
380579	101.99	8.69676
380580	102.193	8.84578
380581	102.397	8.99469
380582	102.6	9.14348
380583	102.804	9.29215
380584	103.008	9.44071
380585	103.212	9.58914
380586	103.416	9.73744
380587	103.62	9.88562
380588	103.825	10.0337
380589	104.03	10.1816
380590	104.235	10.3294
380591	104.44	10.477
380592	104.645	10.6246
380593	104.851	10.7719
380594	105.057	10.9192
380595	105.263	11.0663
380596	105.469	11.2132
380597	105.675	11.36
380598	105.882	11.5067
380599	106.089	11.6532
380600	106.296	11.7995
380601	106.503	11.9457
380602	106.711	12.0918
380603	106.919	12.2376
380604	107.127	12.3834
380605	107.335	12.5289
380606	107.543	12.6743
380607	107.752	12.8195
380608	107.961	12.9646
380609	108.17	13.1095
380610	108.38	13.2542
380611	108.589	13.3987
380612	108.799	13.5431
380613	109.009	13.6872
380614	109.22	13.8312
380615	109.431	13.975
380616	109.642	14.1186
380617	109.853	14.2621
380618	110.065	14.4053
380619	110.276	14.5483
380620	110.488	14.6912
380621	110.701	14.8338
380622	110.914	14.9763
380623	111.127	15.1185
380624	111.34	15.2606
380625	111.553	15.4024
380626	111.767	15.544
380627	111.981	15.6855
380628	112.196	15.8267
380629	112.41	15.9676
380630	112.625	16.1084
380631	112.841	16.2489
380632	113.057	16.3893
380633	113.272	16.5294
380634	113.489	16.6692
380635	113.705	16.8089
380636	113.922	16.9483
380637	114.14	17.0874
380638	114.357	17.2264
380639	114.575	17.3651
380640	114.793	17.5035
380641	115.012	17.6417
380642	115.231	17.7797
380643	115.45	17.9174
380644	115.67	18.0549
380645	115.89	18.1921
380646	116.11	18.329
380647	116.331	18.4657
380648	116.552	18.6022
380649	116.773	18.7383
380650	116.995	18.8742
380651	117.217	19.0099
380652	117.439	19.1452
380653	117.662	19.2803
380654	117.886	19.4151
380655	118.109	19.5497
380656	118.333	19.6839
380657	118.557	19.8179
380658	118.782	19.9516
380659	119.007	20.085
380660	119.233	20.2181
380661	119.459	20.3509
380662	119.685	20.4834
380663	119.912	20.6156
380664	120.139	20.7475
380665	120.366	20.8791
380666	120.594	21.0104
380667	120.822	21.1414
380668	121.051	21.2721
380669	121.28	21.4025
380670	121.51	21.5325
380671	121.739	21.6623
380672	121.97	21.7917
380673	122.201	21.9207
380674	122.432	22.0495
380675	122.663	22.1779
380676	122.895	22.306
380677	123.128	22.4338
380678	123.361	22.5612
380679	123.594	22.6882
380680	123.828	22.815
380681	124.062	22.9413
380682	124.297	23.0674
380683	124.532	23.193
380684	124.767	23.3184
380685	125.003	23.4433
380686	125.24	23.5679
380687	125.476	23.6922
380688	125.714	23.816
380689	125.952	23.9395
380690	126.19	24.0627
380691	126.429	24.1854
380692	126.668	24.3078
380693	126.907	24.4298
380694	127.147	24.5514
380695	127.388	24.6726
380696	127.629	24.7935
380697	127.871	24.9139
380698	128.113	25.0339
380699	128.355	25.1536
380700	128.598	25.2728
380701	128.841	25.3917
380702	129.085	25.5101
380703	129.33	25.6281
380704	129.575	25.7457
380705	129.82	25.8629
380706	130.066	25.9797
380707	130.312	26.0961
380708	130.559	26.212
380709	130.806	26.3275
380710	131.054	26.4426
380711	131.302	26.5572
380712	131.551	26.6714
380713	131.801	26.7851
380714	132.05	26.8985
380715	132.301	27.0113
380716	132.552	27.1237
380717	132.803	27.2357
380718	133.055	27.3472
380719	133.307	27.4583
380720	133.56	27.5688
380721	133.813	27.679
380722	134.067	27.7886
380723	134.322	27.8978
380724	134.577	28.0065
380725	134.832	28.1147
380726	135.088	28.2225
380727	135.345	28.3298
380728	135.602	28.4365
380729	135.859	28.5428
380730	136.117	28.6486
380731	136.376	28.7539
380732	136.635	28.8587
380733	136.894	28.963
380734	137.155	29.0668
380735	137.415	29.1701
380736	137.676	29.2729
380737	137.938	29.3751
380738	138.2	29.4769
380739	138.463	29.5781
380740	138.727	29.6788
380741	138.99	29.7789
380742	139.255	29.8786
380743	139.52	29.9777
380744	139.785	30.0762
380745	140.051	30.1743
380746	140.318	30.2717
380747	140.585	30.3687
380748	140.852	30.465
380749	141.12	30.5609
380750	141.389	30.6561
380751	141.658	30.7508
380752	141.928	30.845
380753	142.198	30.9386
380754	142.469	31.0316
380755	142.74	31.124
380756	143.012	31.2159
380757	143.284	31.3072
380758	143.557	31.3979
380759	143.83	31.488
380760	144.104	31.5775
380761	144.379	31.6664
380762	144.654	31.7548
380763	144.929	31.8425
380764	145.205	31.9296
380765	145.482	32.0162
380766	145.759	32.1021
380767	146.037	32.1874
380768	146.315	32.2721
380769	146.593	32.3562
380770	146.873	32.4397
380771	147.152	32.5225
380772	147.433	32.6047
380773	147.713	32.6863
380774	147.994	32.7672
380775	148.276	32.8475
380776	148.558	32.9272
380777	148.841	33.0062
380778	149.125	33.0846
380779	149.408	33.1624
380780	149.693	33.2395
380781	149.977	33.3159
380782	150.263	33.3917
380783	150.548	33.4668
380784	150.835	33.5412
380785	151.122	33.615
380786	151.409	33.6881
380787	151.697	33.7606
380788	151.985	33.8323
380789	152.274	33.9034
380790	152.563	33.9738
380791	152.852	34.0435
380792	153.143	34.1126
380793	153.433	34.1809
380794	153.724	34.2485
380795	154.016	34.3155
380796	154.308	34.3817
380797	154.601	34.4473
380798	154.894	34.5121
380799	155.187	34.5763
380800	155.481	34.6397
380801	155.775	34.7024
380802	156.07	34.7644
380803	156.365	34.8257
380804	156.661	34.8863
380805	156.957	34.9461
380806	157.253	35.0052
380807	157.55	35.0636
380808	157.848	35.1212
380809	158.146	35.1781
380810	158.444	35.2343
380811	158.742	35.2898
380812	159.041	35.3444
380813	159.341	35.3984
380814	159.641	35.4516
380815	159.941	35.5041
380816	160.242	35.5558
380817	160.543	35.6067
380818	160.844	35.6569
380819	161.146	35.7063
380820	161.448	35.755
380821	161.75	35.8029
380822	162.053	35.85
380823	162.357	35.8964
380824	162.66	35.942
380825	162.964	35.9868
380826	163.268	36.0309
380827	163.573	36.0742
380828	163.878	36.1167
380829	164.183	36.1584
380830	164.489	36.1993
380831	164.795	36.2395
380832	165.101	36.2788
380833	165.408	36.3174
380834	165.714	36.3552
380835	166.022	36.3922
380836	166.329	36.4284
380837	166.637	36.4638
380838	166.945	36.4984
380839	167.253	36.5322
380840	167.562	36.5652
380841	167.87	36.5974
380842	168.179	36.6288
380843	168.489	36.6593
380844	168.798	36.6891
380845	169.108	36.7181
380846	169.418	36.7462
380847	169.728	36.7736
380848	170.039	36.8001
380849	170.35	36.8258
380850	170.66	36.8507
380851	170.972	36.8748
380852	171.283	36.8981
380853	171.594	36.9205
380854	171.906	36.9421
380855	172.218	36.9629
380856	172.53	36.9829
380857	172.842	37.0021
380858	173.154	37.0204
380859	173.467	37.0379
380860	173.779	37.0546
380861	174.092	37.0704
380862	174.405	37.0854
380863	174.718	37.0996
380864	175.031	37.113
380865	175.344	37.1255
380866	175.657	37.1372
380867	175.971	37.1481
380868	176.284	37.1581
380869	176.598	37.1673
380870	176.912	37.1756
380871	177.225	37.1832
380872	177.539	37.1899
380873	177.853	37.1957
380874	178.167	37.2007
380875	178.481	37.2049
380876	178.795	37.2083
380877	179.108	37.2108
380878	179.422	37.2125
380879	179.736	37.2133
380880	180.05	37.2133
380881	180.364	37.2125
380882	180.678	37.2108
380883	180.992	37.2083
380884	181.306	37.205
380885	181.62	37.2008
380886	181.934	37.1958
380887	182.248	37.1899
380888	182.562	37.1832
380889	182.875	37.1757
380890	183.189	37.1674
380891	183.503	37.1582
380892	183.816	37.1481
380893	184.129	37.1373
380894	184.443	37.1256
380895	184.756	37.1131
380896	185.069	37.0997
380897	185.382	37.0856
380898	185.695	37.0705
380899	186.008	37.0547
380900	186.32	37.038
380901	186.633	37.0205
380902	186.945	37.0022
380903	187.257	36.9831
380904	187.569	36.9631
380905	187.881	36.9423
380906	188.193	36.9207
380907	188.504	36.8982
380908	188.815	36.875
380909	189.126	36.8509
380910	189.437	36.826
380911	189.748	36.8003
380912	190.059	36.7738
380913	190.369	36.7464
380914	190.679	36.7183
380915	190.989	36.6893
380916	191.298	36.6595
380917	191.607	36.6289
380918	191.917	36.5975
380919	192.225	36.5653
380920	192.534	36.5323
380921	192.842	36.4985
380922	193.15	36.4639
380923	193.458	36.4285
380924	193.765	36.3923
380925	194.072	36.3553
380926	194.379	36.3176
380927	194.686	36.279
380928	194.992	36.2396
380929	195.298	36.1995
380930	195.604	36.1585
380931	195.909	36.1168
380932	196.214	36.0743
380933	196.519	36.031
380934	196.823	35.9869
380935	197.127	35.9421
380936	197.43	35.8965
380937	197.734	35.8501
380938	198.036	35.803
380939	198.339	35.7551
380940	198.641	35.7064
380941	198.943	35.6569
380942	199.244	35.6067
380943	199.545	35.5558
380944	199.846	35.504
380945	200.146	35.4516
380946	200.446	35.3984
380947	200.745	35.3444
380948	201.044	35.2897
380949	201.343	35.2342
380950	201.641	35.178
380951	201.939	35.1211
380952	202.236	35.0634
380953	202.533	35.005
380954	202.83	34.9459
380955	203.126	34.8861
380956	203.422	34.8255
380957	203.717	34.7642
380958	204.012	34.7021
380959	204.306	34.6394
380960	204.6	34.576
380961	204.893	34.5118
380962	205.186	34.4469
380963	205.479	34.3813
380964	205.771	34.3151
380965	206.062	34.2481
380966	206.353	34.1804
380967	206.644	34.112
380968	206.934	34.043
380969	207.224	33.9732
380970	207.513	33.9028
380971	207.802	33.8317
380972	208.09	33.7599
380973	208.378	33.6874
380974	208.665	33.6142
380975	208.952	33.5404
380976	209.238	33.4659
380977	209.524	33.3908
380978	209.809	33.315
380979	210.094	33.2385
380980	210.378	33.1614
380981	210.662	33.0836
380982	210.945	33.0052
380983	211.228	32.9261
380984	211.51	32.8464
380985	211.792	32.766
380986	212.073	32.685
380987	212.354	32.6034
380988	212.634	32.5211
380989	212.914	32.4382
380990	213.193	32.3547
380991	213.471	32.2706
380992	213.749	32.1858
380993	214.027	32.1005
380994	214.304	32.0145
380995	214.581	31.9279
380996	214.857	31.8407
380997	215.132	31.7529
380998	215.407	31.6645
380999	215.681	31.5755
381000	215.955	31.4859
381001	216.229	31.3958
381002	216.502	31.305
381003	216.774	31.2137
381004	217.046	31.1217
381005	217.317	31.0292
381006	217.588	30.9361
381007	217.858	30.8425
381008	218.127	30.7483
381009	218.397	30.6535
381010	218.665	30.5582
381011	218.933	30.4623
381012	219.201	30.3658
381013	219.468	30.2688
381014	219.734	30.1713
381015	220	30.0732
381016	220.265	29.9745
381017	220.53	29.8753
381018	220.795	29.7756
381019	221.058	29.6754
381020	221.322	29.5746
381021	221.584	29.4733
381022	221.847	29.3715
381023	222.108	29.2691
381024	222.369	29.1663
381025	222.63	29.0629
381026	222.89	28.959
381027	223.15	28.8546
381028	223.409	28.7497
381029	223.667	28.6444
381030	223.925	28.5385
381031	224.183	28.4321
381032	224.44	28.3252
381033	224.696	28.2178
381034	224.952	28.11
381035	225.207	28.0017
381036	225.462	27.8928
381037	225.717	27.7836
381038	225.97	27.6738
381039	226.224	27.5636
381040	226.477	27.4529
381041	226.729	27.3417
381042	226.981	27.2301
381043	227.232	27.118
381044	227.483	27.0055
381045	227.733	26.8925
381046	227.983	26.7791
381047	228.232	26.6652
381048	228.481	26.5509
381049	228.729	26.4362
381050	228.977	26.321
381051	229.224	26.2054
381052	229.471	26.0893
381053	229.717	25.9729
381054	229.963	25.856
381055	230.208	25.7386
381056	230.453	25.6209
381057	230.697	25.5028
381058	230.941	25.3842
381059	231.184	25.2652
381060	231.427	25.1459
381061	231.669	25.0261
381062	231.911	24.9059
381063	232.153	24.7853
381064	232.394	24.6644
381065	232.634	24.543
381066	232.874	24.4212
381067	233.113	24.2991
381068	233.353	24.1766
381069	233.591	24.0537
381070	233.829	23.9304
381071	234.067	23.8068
381072	234.304	23.6828
381073	234.541	23.5584
381074	234.777	23.4336
381075	235.013	23.3085
381076	235.248	23.1831
381077	235.483	23.0572
381078	235.718	22.931
381079	235.952	22.8045
381080	236.186	22.6776
381081	236.419	22.5504
381082	236.652	22.4228
381083	236.884	22.2949
381084	237.116	22.1667
381085	237.347	22.0381
381086	237.578	21.9092
381087	237.809	21.7799
381088	238.039	21.6503
381089	238.269	21.5204
381090	238.498	21.3902
381091	238.727	21.2597
381092	238.956	21.1288
381093	239.184	20.9977
381094	239.412	20.8662
381095	239.639	20.7344
381096	239.866	20.6023
381097	240.092	20.4699
381098	240.319	20.3372
381099	240.544	20.2042
381100	240.77	20.0709
381101	240.995	19.9374
381102	241.219	19.8035
381103	241.443	19.6693
381104	241.667	19.5349
381105	241.891	19.4002
381106	242.114	19.2652
381107	242.336	19.1299
381108	242.559	18.9943
381109	242.781	18.8585
381110	243.002	18.7224
381111	243.223	18.586
381112	243.444	18.4494
381113	243.665	18.3125
381114	243.885	18.1753
381115	244.105	18.0379
381116	244.324	17.9002
381117	244.543	17.7623
381118	244.762	17.6241
381119	244.98	17.4857
381120	245.199	17.3471
381121	245.416	17.2081
381122	245.634	17.069
381123	245.851	16.9296
381124	246.068	16.79
381125	246.284	16.6501
381126	246.5	16.51
381127	246.716	16.3697
381128	246.931	16.2292
381129	247.147	16.0884
381130	247.361	15.9474
381131	247.576	15.8062
381132	247.79	15.6647
381133	248.004	15.5231
381134	248.218	15.3812
381135	248.431	15.2392
381136	248.644	15.0969
381137	248.857	14.9544
381138	249.069	14.8117
381139	249.282	14.6688
381140	249.494	14.5257
381141	249.705	14.3824
381142	249.917	14.2389
381143	250.128	14.0953
381144	250.338	13.9514
381145	250.549	13.8073
381146	250.759	13.6631
381147	250.969	13.5187
381148	251.179	13.3741
381149	251.388	13.2293
381150	251.598	13.0843
381151	251.807	12.9392
381152	252.015	12.7938
381153	252.224	12.6483
381154	252.432	12.5027
381155	252.64	12.3569
381156	252.848	12.2109
381157	253.055	12.0647
381158	253.263	11.9184
381159	253.47	11.7719
381160	253.677	11.6253
381161	253.883	11.4785
381162	254.09	11.3316
381163	254.296	11.1845
381164	254.502	11.0372
381165	254.708	10.8899
381166	254.913	10.7423
381167	255.118	10.5947
381168	255.324	10.4469
381169	255.529	10.2989
381170	255.733	10.1508
381171	255.938	10.0026
381172	256.142	9.85426
381173	256.346	9.70577
381174	256.55	9.55716
381175	256.754	9.40843
381176	256.958	9.25957
381177	257.161	9.11059
381178	257.364	8.96148
381179	257.568	8.81226
381180	257.77	8.66293
381181	257.973	8.51347
381182	258.176	8.36391
381183	258.378	8.21424
381184	258.58	8.06445
381185	258.783	7.91456
381186	258.985	7.76457
381187	259.186	7.61447
381188	259.388	7.46427
381189	259.59	7.31398
381190	259.791	7.16358
381191	259.992	7.0131
381192	260.193	6.86252
381193	260.394	6.71184
381194	260.595	6.56108
381195	260.796	6.41023
381196	260.996	6.2593
381197	261.197	6.10828
381198	261.397	5.95718
381199	261.597	5.806
381200	261.798	5.65474
381201	261.998	5.50341
381202	262.197	5.352
381203	262.397	5.20052
381204	262.597	5.04897
381205	262.797	4.89736
381206	262.996	4.74567
381207	263.195	4.59392
381208	263.395	4.44211
381209	263.594	4.29024
381210	263.793	4.1383
381211	263.992	3.98631
381212	264.191	3.83427
381213	264.39	3.68217
381214	264.589	3.53002
381215	264.788	3.37782
381216	264.986	3.22557
381217	265.185	3.07327
381218	265.384	2.92093
381219	265.582	2.76855
381220	265.78	2.61613
381221	265.979	2.46367
381222	266.177	2.31117
381223	266.376	2.15864
381224	266.574	2.00607
381225	266.772	1.85347
381226	266.97	1.70084
381227	267.168	1.54819
381228	267.366	1.39551
381229	267.564	1.2428
381230	267.762	1.09007
381231	267.96	0.937321
381232	268.158	0.784553
381233	268.356	0.631768
381234	268.554	0.478968
381235	268.752	0.326155
381236	268.95	0.17333
381237	269.148	0.0204953
381238	269.346	-0.132347
381239	269.544	-0.285195
381240	269.742	-0.438048
381241	269.94	-0.590903
381242	270.138	-0.743758
381243	270.336	-0.896612
381244	270.533	-1.04946
381245	270.731	-1.20231
381246	270.929	-1.35515
381247	271.127	-1.50798
381248	271.325	-1.6608
381249	271.523	-1.81361
381250	271.721	-1.9664
381251	271.919	-2.11918
381252	272.118	-2.27194
381253	272.316	-2.42468
381254	272.514	-2.5774
381255	272.712	-2.7301
381256	272.91	-2.88277
381257	273.109	-3.03542
381258	273.307	-3.18804
381259	273.506	-3.34062
381260	273.704	-3.49317
381261	273.903	-3.64569
381262	274.101	-3.79818
381263	274.3	-3.95062
381264	274.499	-4.10303
381265	274.697	-4.2554
381266	274.896	-4.40772
381267	275.095	-4.55999
381268	275.294	-4.71222
381269	275.493	-4.8644
381270	275.693	-5.01653
381271	275.892	-5.16861
381272	276.091	-5.32063
381273	276.291	-5.4726
381274	276.49	-5.62451
381275	276.69	-5.77635
381276	276.89	-5.92814
381277	277.089	-6.07986
381278	277.289	-6.23152
381279	277.489	-6.38311
381280	277.69	-6.53463
381281	277.89	-6.68607
381282	278.09	-6.83745
381283	278.291	-6.98875
381284	278.492	-7.13997
381285	278.692	-7.29112
381286	278.893	-7.44218
381287	279.094	-7.59316
381288	279.296	-7.74406
381289	279.497	-7.89487
381290	279.698	-8.04559
381291	279.9	-8.19622
381292	280.102	-8.34676
381293	280.304	-8.4972
381294	280.506	-8.64755
381295	280.708	-8.7978
381296	280.91	-8.94795
381297	281.113	-9.09799
381298	281.316	-9.24794
381299	281.518	-9.39778
381300	281.721	-9.54751
381301	281.925	-9.69713
381302	282.128	-9.84663
381303	282.332	-9.99603
381304	282.535	-10.1453
381305	282.739	-10.2945
381306	282.943	-10.4435
381307	283.148	-10.5924
381308	283.352	-10.7412
381309	283.557	-10.8899
381310	283.762	-11.0384
381311	283.967	-11.1869
381312	284.172	-11.3351
381313	284.378	-11.4833
381314	284.583	-11.6313
381315	284.789	-11.7792
381316	284.995	-11.9269
381317	285.202	-12.0745
381318	285.408	-12.2219
381319	285.615	-12.3692
381320	285.822	-12.5164
381321	286.029	-12.6634
381322	286.237	-12.8102
381323	286.445	-12.9569
381324	286.653	-13.1035
381325	286.861	-13.2499
381326	287.069	-13.3961
381327	287.278	-13.5421
381328	287.487	-13.688
381329	287.696	-13.8337
381330	287.906	-13.9793
381331	288.115	-14.1247
381332	288.325	-14.2699
381333	288.536	-14.4149
381334	288.746	-14.5598
381335	288.957	-14.7044
381336	289.168	-14.8489
381337	289.379	-14.9932
381338	289.591	-15.1374
381339	289.803	-15.2813
381340	290.015	-15.425
381341	290.227	-15.5686
381342	290.44	-15.7119
381343	290.653	-15.8551
381344	290.867	-15.9981
381345	291.08	-16.1408
381346	291.294	-16.2833
381347	291.509	-16.4257
381348	291.723	-16.5678
381349	291.938	-16.7097
381350	292.153	-16.8514
381351	292.369	-16.9929
381352	292.584	-17.1342
381353	292.801	-17.2753
381354	293.017	-17.4161
381355	293.234	-17.5567
381356	293.451	-17.6971
381357	293.668	-17.8372
381358	293.886	-17.9771
381359	294.104	-18.1168
381360	294.323	-18.2562
381361	294.542	-18.3954
381362	294.761	-18.5344
381363	294.98	-18.6731
381364	295.2	-18.8115
381365	295.42	-18.9498
381366	295.641	-19.0877
381367	295.862	-19.2254
381368	296.083	-19.3629
381369	296.305	-19.5001
381370	296.527	-19.637
381371	296.75	-19.7737
381372	296.972	-19.9101
381373	297.195	-20.0462
381374	297.419	-20.1821
381375	297.643	-20.3177
381376	297.867	-20.453
381377	298.092	-20.588
381378	298.317	-20.7227
381379	298.543	-20.8572
381380	298.769	-20.9914
381381	298.995	-21.1253
381382	299.222	-21.2589
381383	299.449	-21.3922
381384	299.676	-21.5252
381385	299.904	-21.6579
381386	300.132	-21.7903
381387	300.361	-21.9224
381388	300.59	-22.0541
381389	300.82	-22.1856
381390	301.05	-22.3168
381391	301.28	-22.4476
381392	301.511	-22.5781
381393	301.743	-22.7083
381394	301.974	-22.8382
381395	302.207	-22.9678
381396	302.439	-23.097
381397	302.672	-23.2259
381398	302.906	-23.3544
381399	303.14	-23.4827
381400	303.374	-23.6105
381401	303.609	-23.7381
381402	303.844	-23.8653
381403	304.08	-23.9921
381404	304.316	-24.1186
381405	304.553	-24.2447
381406	304.79	-24.3705
381407	305.028	-24.4959
381408	305.266	-24.6209
381409	305.504	-24.7456
381410	305.743	-24.8699
381411	305.983	-24.9939
381412	306.223	-25.1174
381413	306.463	-25.2406
381414	306.704	-25.3634
381415	306.946	-25.4859
381416	307.187	-25.6079
381417	307.43	-25.7295
381418	307.673	-25.8508
381419	307.916	-25.9717
381420	308.16	-26.0921
381421	308.404	-26.2122
381422	308.649	-26.3318
381423	308.894	-26.4511
381424	309.14	-26.5699
381425	309.387	-26.6883
381426	309.634	-26.8063
381427	309.881	-26.9239
381428	310.129	-27.0411
381429	310.377	-27.1578
381430	310.626	-27.2741
381431	310.876	-27.39
381432	311.126	-27.5055
381433	311.376	-27.6205
381434	311.627	-27.735
381435	311.878	-27.8491
381436	312.131	-27.9628
381437	312.383	-28.076
381438	312.636	-28.1888
381439	312.89	-28.3011
381440	313.144	-28.413
381441	313.399	-28.5244
381442	313.654	-28.6353
381443	313.909	-28.7457
381444	314.166	-28.8557
381445	314.423	-28.9652
381446	314.68	-29.0742
381447	314.938	-29.1828
381448	315.196	-29.2908
381449	315.455	-29.3984
381450	315.715	-29.5055
381451	315.975	-29.612
381452	316.235	-29.7181
381453	316.496	-29.8237
381454	316.758	-29.9288
381455	317.02	-30.0333
381456	317.283	-30.1374
381457	317.546	-30.2409
381458	317.81	-30.344
381459	318.075	-30.4465
381460	318.34	-30.5484
381461	318.605	-30.6499
381462	318.871	-30.7508
381463	319.138	-30.8512
381464	319.405	-30.951
381465	319.673	-31.0503
381466	319.941	-31.1491
381467	320.21	-31.2473
381468	320.479	-31.345
381469	320.749	-31.4421
381470	321.02	-31.5387
381471	321.291	-31.6346
381472	321.562	-31.7301
381473	321.835	-31.8249
381474	322.107	-31.9192
381475	322.38	-32.0129
381476	322.654	-32.1061
381477	322.929	-32.1986
381478	323.204	-32.2906
381479	323.479	-32.382
381480	323.755	-32.4728
381481	324.032	-32.563
381482	324.309	-32.6526
381483	324.586	-32.7416
381484	324.865	-32.8301
381485	325.143	-32.9179
381486	325.423	-33.005
381487	325.703	-33.0916
381488	325.983	-33.1776
381489	326.264	-33.2629
381490	326.545	-33.3476
381491	326.828	-33.4317
381492	327.11	-33.5152
381493	327.393	-33.598
381494	327.677	-33.6802
381495	327.961	-33.7618
381496	328.246	-33.8427
381497	328.531	-33.923
381498	328.817	-34.0026
381499	329.103	-34.0816
381500	329.39	-34.1599
381501	329.677	-34.2375
381502	329.965	-34.3145
381503	330.254	-34.3909
381504	330.543	-34.4665
381505	330.832	-34.5415
381506	331.122	-34.6158
381507	331.413	-34.6895
381508	331.704	-34.7624
381509	331.995	-34.8347
381510	332.287	-34.9063
381511	332.58	-34.9772
381512	332.873	-35.0474
381513	333.166	-35.117
381514	333.46	-35.1858
381515	333.755	-35.2539
381516	334.05	-35.3213
381517	334.345	-35.388
381518	334.641	-35.454
381519	334.938	-35.5193
381520	335.234	-35.5839
381521	335.532	-35.6477
381522	335.83	-35.7108
381523	336.128	-35.7733
381524	336.427	-35.8349
381525	336.726	-35.8959
381526	337.026	-35.9561
381527	337.326	-36.0156
381528	337.627	-36.0743
381529	337.928	-36.1323
381530	338.229	-36.1896
381531	338.531	-36.2461
381532	338.833	-36.3018
381533	339.136	-36.3569
381534	339.439	-36.4111
381535	339.743	-36.4646
381536	340.047	-36.5174
381537	340.351	-36.5693
381538	340.656	-36.6206
381539	340.961	-36.671
381540	341.267	-36.7207
381541	341.573	-36.7696
381542	341.88	-36.8177
381543	342.186	-36.8651
381544	342.493	-36.9117
381545	342.801	-36.9575
381546	343.109	-37.0025
381547	343.417	-37.0467
381548	343.726	-37.0902
381549	344.035	-37.1328
381550	344.344	-37.1747
381551	344.654	-37.2157
381552	344.964	-37.256
381553	345.274	-37.2955
381554	345.585	-37.3342
381555	345.896	-37.372
381556	346.207	-37.4091
381557	346.518	-37.4454
381558	346.83	-37.4808
381559	347.142	-37.5155
381560	347.455	-37.5493
381561	347.767	-37.5823
381562	348.08	-37.6146
381563	348.394	-37.646
381564	348.707	-37.6765
381565	349.021	-37.7063
381566	349.335	-37.7352
381567	349.649	-37.7633
381568	349.964	-37.7906
381569	350.278	-37.8171
381570	350.593	-37.8427
381571	350.908	-37.8676
381572	351.224	-37.8915
381573	351.539	-37.9147
381574	351.855	-37.937
381575	352.171	-37.9585
381576	352.487	-37.9792
381577	352.803	-37.999
381578	353.12	-38.018
381579	353.436	-38.0361
381580	353.753	-38.0534
381581	354.07	-38.0699
381582	354.387	-38.0855
381583	354.704	-38.1003
381584	355.021	-38.1142
381585	355.339	-38.1273
381586	355.656	-38.1396
381587	355.974	-38.151
381588	356.292	-38.1616
381589	356.609	-38.1713
381590	356.927	-38.1802
381591	357.245	-38.1883
381592	357.563	-38.1955
381593	357.881	-38.2018
381594	358.199	-38.2073
381595	358.518	-38.212
381596	358.836	-38.2158
381597	359.154	-38.2187
381598	359.472	-38.2208
381599	359.791	-38.2221
381600	0.10875	-38.2225
426240	3.16455	-50.0295
426241	3.54433	-50.0208
426242	3.92397	-50.0111
426243	4.30347	-50.0004
426244	4.6828	-49.9887
426245	5.06196	-49.976
426246	5.44093	-49.9623
426247	5.81969	-49.9475
426248	6.19824	-49.9318
426249	6.57656	-49.915
426250	6.95463	-49.8973
426251	7.33244	-49.8786
426252	7.70998	-49.8588
426253	8.08723	-49.8381
426254	8.46418	-49.8164
426255	8.84082	-49.7936
426256	9.21713	-49.7699
426257	9.5931	-49.7452
426258	9.96871	-49.7195
426259	10.344	-49.6929
426260	10.7188	-49.6652
426261	11.0933	-49.6366
426262	11.4674	-49.607
426263	11.841	-49.5764
426264	12.2142	-49.5448
426265	12.587	-49.5123
426266	12.9593	-49.4788
426267	13.3312	-49.4443
426268	13.7026	-49.4089
426269	14.0734	-49.3725
426270	14.4438	-49.3351
426271	14.8137	-49.2968
426272	15.183	-49.2575
426273	15.5518	-49.2173
426274	15.9201	-49.1762
426275	16.2878	-49.1341
426276	16.6549	-49.091
426277	17.0214	-49.0471
426278	17.3874	-49.0022
426279	17.7527	-48.9563
426280	18.1175	-48.9096
426281	18.4816	-48.8619
426282	18.8451	-48.8133
426283	19.2079	-48.7638
426284	19.5701	-48.7133
426285	19.9317	-48.662
426286	20.2925	-48.6098
426287	20.6527	-48.5566
426288	21.0122	-48.5026
426289	21.371	-48.4476
426290	21.7291	-48.3918
426291	22.0865	-48.3351
426292	22.4432	-48.2775
426293	22.7991	-48.2191
426294	23.1543	-48.1597
426295	23.5088	-48.0995
426296	23.8625	-48.0384
426297	24.2155	-47.9765
426298	24.5677	-47.9137
426299	24.9191	-47.8501
426300	25.2697	-47.7856
426301	25.6196	-47.7202
426302	25.9687	-47.6541
426303	26.317	-47.587
426304	26.6644	-47.5192
426305	27.0111	-47.4505
426306	27.3569	-47.381
426307	27.702	-47.3107
426308	28.0462	-47.2396
426309	28.3895	-47.1677
426310	28.7321	-47.0949
426311	29.0738	-47.0214
426312	29.4147	-46.9471
426313	29.7547	-46.872
426314	30.0938	-46.7961
426315	30.4321	-46.7194
426316	30.7696	-46.6419
426317	31.1062	-46.5637
426318	31.4419	-46.4847
426319	31.7767	-46.4049
426320	32.1107	-46.3244
426321	32.4438	-46.2432
426322	32.776	-46.1611
426323	33.1073	-46.0784
426324	33.4378	-45.9949
426325	33.7674	-45.9106
426326	34.096	-45.8257
426327	34.4238	-45.74
426328	34.7507	-45.6536
426329	35.0767	-45.5665
426330	35.4018	-45.4786
426331	35.726	-45.3901
426332	36.0493	-45.3009
426333	36.3717	-45.2109
426334	36.6932	-45.1203
426335	37.0138	-45.029
426336	37.3335	-44.937
426337	37.6523	-44.8443
426338	37.9702	-44.751
426339	38.2871	-44.657
426340	38.6032	-44.5623
426341	38.9184	-44.467
426342	39.2326	-44.371
426343	39.546	-44.2744
426344	39.8585	-44.1771
426345	40.17	-44.0792
426346	40.4807	-43.9807
426347	40.7904	-43.8815
426348	41.0992	-43.7817
426349	41.4072	-43.6813
426350	41.7142	-43.5803
426351	42.0203	-43.4787
426352	42.3256	-43.3764
426353	42.6299	-43.2736
426354	42.9333	-43.1702
426355	43.2359	-43.0661
426356	43.5375	-42.9615
426357	43.8383	-42.8563
426358	44.1382	-42.7505
426359	44.4371	-42.6442
426360	44.7352	-42.5373
426361	45.0324	-42.4298
426362	45.3288	-42.3218
426363	45.6242	-42.2132
426364	45.9188	-42.104
426365	46.2125	-41.9944
426366	46.5053	-41.8841
426367	46.7972	-41.7734
426368	47.0883	-41.6621
426369	47.3785	-41.5503
426370	47.6678	-41.4379
426371	47.9563	-41.3251
426372	48.2439	-41.2117
426373	48.5307	-41.0978
426374	48.8166	-40.9834
426375	49.1017	-40.8685
426376	49.3859	-40.7531
426377	49.6693	-40.6372
426378	49.9518	-40.5209
426379	50.2335	-40.404
426380	50.5144	-40.2867
426381	50.7944	-40.1689
426382	51.0736	-40.0506
426383	51.352	-39.9319
426384	51.6296	-39.8126
426385	51.9063	-39.693
426386	52.1822	-39.5729
426387	52.4574	-39.4523
426388	52.7317	-39.3313
426389	53.0052	-39.2098
426390	53.2779	-39.0879
426391	53.5498	-38.9656
426392	53.821	-38.8428
426393	54.0913	-38.7196
426394	54.3609	-38.596
426395	54.6296	-38.472
426396	54.8976	-38.3476
426397	55.1649	-38.2227
426398	55.4313	-38.0974
426399	55.697	-37.9718
426400	55.962	-37.8457
426401	56.2262	-37.7193
426402	56.4896	-37.5924
426403	56.7523	-37.4652
426404	57.0142	-37.3376
426405	57.2755	-37.2096
426406	57.5359	-37.0812
426407	57.7957	-36.9525
426408	58.0547	-36.8234
426409	58.313	-36.6939
426410	58.5706	-36.5641
426411	58.8274	-36.4339
426412	59.0836	-36.3033
426413	59.339	-36.1724
426414	59.5938	-36.0412
426415	59.8478	-35.9096
426416	60.1012	-35.7777
426417	60.3539	-35.6454
426418	60.6059	-35.5128
426419	60.8572	-35.3799
426420	61.1078	-35.2466
426421	61.3578	-35.1131
426422	61.6071	-34.9792
426423	61.8557	-34.845
426424	62.1037	-34.7104
426425	62.351	-34.5756
426426	62.5977	-34.4405
426427	62.8438	-34.305
426428	63.0892	-34.1693
426429	63.3339	-34.0333
426430	63.5781	-33.897
426431	63.8216	-33.7603
426432	64.0645	-33.6234
426433	64.3068	-33.4863
426434	64.5484	-33.3488
426435	64.7895	-33.2111
426436	65.0299	-33.0731
426437	65.2698	-32.9348
426438	65.5091	-32.7962
426439	65.7477	-32.6574
426440	65.9858	-32.5183
426441	66.2233	-32.379
426442	66.4603	-32.2394
426443	66.6966	-32.0996
426444	66.9324	-31.9595
426445	67.1676	-31.8192
426446	67.4023	-31.6786
426447	67.6364	-31.5378
426448	67.87	-31.3967
426449	68.103	-31.2554
426450	68.3355	-31.1139
426451	68.5674	-30.9722
426452	68.7988	-30.8302
426453	69.0297	-30.688
426454	69.26	-30.5456
426455	69.4899	-30.403
426456	69.7192	-30.2601
426457	69.948	-30.1171
426458	70.1763	-29.9738
426459	70.4041	-29.8303
426460	70.6314	-29.6866
426461	70.8582	-29.5428
426462	71.0845	-29.3987
426463	71.3104	-29.2544
426464	71.5357	-29.11
426465	71.7606	-28.9653
426466	71.985	-28.8205
426467	72.2089	-28.6754
426468	72.4324	-28.5302
426469	72.6554	-28.3848
426470	72.878	-28.2393
426471	73.1001	-28.0935
426472	73.3217	-27.9476
426473	73.543	-27.8015
426474	73.7637	-27.6553
426475	73.9841	-27.5089
426476	74.204	-27.3623
426477	74.4235	-27.2156
426478	74.6425	-27.0687
426479	74.8612	-26.9217
426480	75.0794	-26.7745
426481	75.2972	-26.6271
426482	75.5147	-26.4796
426483	75.7317	-26.332
426484	75.9483	-26.1842
426485	76.1645	-26.0363
426486	76.3804	-25.8882
426487	76.5958	-25.74
426488	76.8109	-25.5917
426489	77.0256	-25.4432
426490	77.2399	-25.2947
426491	77.4538	-25.1459
426492	77.6674	-24.9971
426493	77.8806	-24.8482
426494	78.0935	-24.6991
426495	78.306	-24.5499
426496	78.5181	-24.4006
426497	78.7299	-24.2512
426498	78.9414	-24.1016
426499	79.1525	-23.952
426500	79.3633	-23.8022
426501	79.5738	-23.6524
426502	79.7839	-23.5024
426503	79.9937	-23.3524
426504	80.2032	-23.2023
426505	80.4124	-23.052
426506	80.6213	-22.9017
426507	80.8298	-22.7513
426508	81.0381	-22.6007
426509	81.246	-22.4501
426510	81.4536	-22.2995
426511	81.661	-22.1487
426512	81.8681	-21.9978
426513	82.0748	-21.8469
426514	82.2813	-21.6959
426515	82.4876	-21.5449
426516	82.6935	-21.3937
426517	82.8992	-21.2425
426518	83.1046	-21.0912
426519	83.3097	-20.9399
426520	83.5146	-20.7884
426521	83.7192	-20.637
426522	83.9235	-20.4854
426523	84.1276	-20.3339
426524	84.3315	-20.1822
426525	84.5351	-20.0305
426526	84.7385	-19.8788
426527	84.9416	-19.727
426528	85.1445	-19.5751
426529	85.3472	-19.4232
426530	85.5497	-19.2713
426531	85.7519	-19.1193
426532	85.9539	-18.9673
426533	86.1557	-18.8152
426534	86.3573	-18.6631
426535	86.5586	-18.511
426536	86.7598	-18.3588
426537	86.9608	-18.2066
426538	87.1615	-18.0544
426539	87.3621	-17.9022
426540	87.5624	-17.7499
426541	87.7626	-17.5976
426542	87.9626	-17.4453
426543	88.1624	-17.293
426544	88.3621	-17.1406
426545	88.5615	-16.9882
426546	88.7608	-16.8359
426547	88.9599	-16.6835
426548	89.1588	-16.5311
426549	89.3576	-16.3787
426550	89.5562	-16.2262
426551	89.7547	-16.0738
426552	89.953	-15.9214
426553	90.1512	-15.769
426554	90.3492	-15.6166
426555	90.547	-15.4642
426556	90.7448	-15.3117
426557	90.9423	-15.1593
426558	91.1398	-15.0069
426559	91.3371	-14.8546
426560	91.5343	-14.7022
426561	91.7313	-14.5498
426562	91.9283	-14.3975
426563	92.1251	-14.2452
426564	92.3218	-14.0929
426565	92.5184	-13.9406
426566	92.7149	-13.7883
426567	92.9112	-13.6361
426568	93.1075	-13.4839
426569	93.3036	-13.3317
426570	93.4997	-13.1795
426571	93.6957	-13.0274
426572	93.8915	-12.8753
426573	94.0873	-12.7233
426574	94.283	-12.5713
426575	94.4786	-12.4193
426576	94.6741	-12.2674
426577	94.8696	-12.1155
426578	95.065	-11.9636
426579	95.2603	-11.8118
426580	95.4555	-11.6601
426581	95.6507	-11.5084
426582	95.8458	-11.3567
426583	96.0408	-11.2051
426584	96.2358	-11.0536
426585	96.4307	-10.9021
426586	96.6256	-10.7506
426587	96.8204	-10.5993
426588	97.0152	-10.448
426589	97.2099	-10.2967
426590	97.4046	-10.1455
426591	97.5993	-9.99442
426592	97.7939	-9.84338
426593	97.9885	-9.69241
426594	98.183	-9.5415
426595	98.3775	-9.39067
426596	98.572	-9.23992
426597	98.7665	-9.08925
426598	98.961	-8.93865
426599	99.1554	-8.78813
426600	99.3498	-8.6377
426601	99.5443	-8.48735
426602	99.7387	-8.33709
426603	99.9331	-8.18691
426604	100.127	-8.03683
426605	100.322	-7.88683
426606	100.516	-7.73693
426607	100.711	-7.58712
426608	100.905	-7.43741
426609	101.1	-7.2878
426610	101.294	-7.13828
426611	101.488	-6.98887
426612	101.683	-6.83956
426613	101.877	-6.69036
426614	102.072	-6.54126
426615	102.266	-6.39227
426616	102.461	-6.24339
426617	102.656	-6.09462
426618	102.85	-5.94597
426619	103.045	-5.79743
426620	103.24	-5.64901
426621	103.434	-5.50071
426622	103.629	-5.35253
426623	103.824	-5.20447
426624	104.019	-5.05654
426625	104.214	-4.90873
426626	104.409	-4.76105
426627	104.604	-4.6135
426628	104.799	-4.46607
426629	104.994	-4.31879
426630	105.189	-4.17163
426631	105.385	-4.02462
426632	105.58	-3.87774
426633	105.775	-3.731
426634	105.971	-3.5844
426635	106.167	-3.43795
426636	106.362	-3.29164
426637	106.558	-3.14548
426638	106.754	-2.99946
426639	106.95	-2.8536
426640	107.146	-2.70789
426641	107.342	-2.56234
426642	107.538	-2.41694
426643	107.734	-2.27169
426644	107.931	-2.12661
426645	108.127	-1.98169
426646	108.324	-1.83693
426647	108.521	-1.69233
426648	108.717	-1.54791
426649	108.914	-1.40365
426650	109.111	-1.25956
426651	109.308	-1.11564
426652	109.506	-0.971897
426653	109.703	-0.828329
426654	109.901	-0.684939
426655	110.098	-0.541728
426656	110.296	-0.398698
426657	110.494	-0.255851
426658	110.692	-0.113188
426659	110.89	0.0292879
426660	111.088	0.171576
426661	111.287	0.313673
426662	111.485	0.455578
426663	111.684	0.59729
426664	111.883	0.738805
426665	112.082	0.880124
426666	112.281	1.02124
426667	112.48	1.16216
426668	112.68	1.30287
426669	112.879	1.44338
426670	113.079	1.58369
426671	113.279	1.72378
426672	113.479	1.86366
426673	113.679	2.00333
426674	113.88	2.14279
426675	114.08	2.28203
426676	114.281	2.42105
426677	114.482	2.55985
426678	114.683	2.69843
426679	114.884	2.83678
426680	115.086	2.97491
426681	115.287	3.11282
426682	115.489	3.25049
426683	115.691	3.38793
426684	115.893	3.52514
426685	116.096	3.66211
426686	116.298	3.79884
426687	116.501	3.93534
426688	116.704	4.07159
426689	116.907	4.2076
426690	117.11	4.34337
426691	117.314	4.47888
426692	117.518	4.61415
426693	117.722	4.74917
426694	117.926	4.88394
426695	118.13	5.01845
426696	118.335	5.1527
426697	118.54	5.28669
426698	118.745	5.42043
426699	118.95	5.5539
426700	119.155	5.6871
426701	119.361	5.82004
426702	119.567	5.95271
426703	119.773	6.08511
426704	119.979	6.21724
426705	120.186	6.34909
426706	120.393	6.48066
426707	120.6	6.61196
426708	120.807	6.74297
426709	121.015	6.8737
426710	121.222	7.00414
426711	121.43	7.1343
426712	121.639	7.26417
426713	121.847	7.39375
426714	122.056	7.52303
426715	122.265	7.65202
426716	122.474	7.78071
426717	122.684	7.90911
426718	122.893	8.0372
426719	123.103	8.16498
426720	123.314	8.29246
426721	123.524	8.41964
426722	123.735	8.5465
426723	123.946	8.67305
426724	124.157	8.79929
426725	124.369	8.92521
426726	124.581	9.05081
426727	124.793	9.17609
426728	125.005	9.30105
426729	125.218	9.42568
426730	125.431	9.54999
426731	125.644	9.67396
426732	125.857	9.79761
426733	126.071	9.92092
426734	126.285	10.0439
426735	126.499	10.1665
426736	126.714	10.2888
426737	126.929	10.4108
426738	127.144	10.5324
426739	127.359	10.6537
426740	127.575	10.7746
426741	127.791	10.8952
426742	128.007	11.0154
426743	128.224	11.1352
426744	128.441	11.2547
426745	128.658	11.3739
426746	128.876	11.4927
426747	129.093	11.6111
426748	129.311	11.7291
426749	129.53	11.8468
426750	129.749	11.9641
426751	129.968	12.081
426752	130.187	12.1976
426753	130.406	12.3138
426754	130.626	12.4296
426755	130.847	12.545
426756	131.067	12.6601
426757	131.288	12.7747
426758	131.509	12.889
426759	131.73	13.0029
426760	131.952	13.1163
426761	132.174	13.2294
426762	132.397	13.3421
426763	132.619	13.4544
426764	132.842	13.5663
426765	133.066	13.6778
426766	133.289	13.7888
426767	133.513	13.8995
426768	133.738	14.0098
426769	133.962	14.1196
426770	134.187	14.229
426771	134.413	14.338
426772	134.638	14.4466
426773	134.864	14.5548
426774	135.09	14.6625
426775	135.317	14.7698
426776	135.544	14.8767
426777	135.771	14.9832
426778	135.999	15.0892
426779	136.227	15.1948
426780	136.455	15.2999
426781	136.684	15.4046
426782	136.912	15.5089
426783	137.142	15.6127
426784	137.371	15.716
426785	137.601	15.8189
426786	137.831	15.9214
426787	138.062	16.0234
426788	138.293	16.1249
426789	138.524	16.226
426790	138.756	16.3267
426791	138.988	16.4268
426792	139.22	16.5265
426793	139.452	16.6257
426794	139.685	16.7245
426795	139.919	16.8228
426796	140.152	16.9206
426797	140.386	17.0179
426798	140.621	17.1147
426799	140.855	17.2111
426800	141.09	17.307
426801	141.325	17.4024
426802	141.561	17.4973
426803	141.797	17.5917
426804	142.033	17.6856
426805	142.27	17.779
426806	142.507	17.8719
426807	142.744	17.9643
426808	142.982	18.0563
426809	143.22	18.1477
426810	143.459	18.2386
426811	143.697	18.3289
426812	143.936	18.4188
426813	144.176	18.5082
426814	144.415	18.597
426815	144.655	18.6853
426816	144.896	18.7731
426817	145.137	18.8604
426818	145.378	18.9472
426819	145.619	19.0334
426820	145.861	19.1191
426821	146.103	19.2042
426822	146.345	19.2888
426823	146.588	19.3729
426824	146.831	19.4565
426825	147.075	19.5395
426826	147.318	19.6219
426827	147.562	19.7038
426828	147.807	19.7852
426829	148.052	19.866
426830	148.297	19.9462
426831	148.542	20.0259
426832	148.788	20.1051
426833	149.034	20.1836
426834	149.28	20.2617
426835	149.527	20.3391
426836	149.774	20.416
426837	150.021	20.4923
426838	150.269	20.568
426839	150.517	20.6432
426840	150.765	20.7178
426841	151.014	20.7918
426842	151.263	20.8653
426843	151.512	20.9381
426844	151.762	21.0104
426845	152.012	21.0821
426846	152.262	21.1532
426847	152.512	21.2237
426848	152.763	21.2936
426849	153.014	21.3629
426850	153.266	21.4316
426851	153.518	21.4997
426852	153.77	21.5673
426853	154.022	21.6342
426854	154.275	21.7005
426855	154.528	21.7662
426856	154.781	21.8313
426857	155.035	21.8958
426858	155.288	21.9597
426859	155.543	22.0229
426860	155.797	22.0856
426861	156.052	22.1476
426862	156.307	22.209
426863	156.562	22.2698
426864	156.818	22.33
426865	157.074	22.3895
426866	157.33	22.4484
426867	157.586	22.5067
426868	157.843	22.5643
426869	158.1	22.6213
426870	158.357	22.6777
426871	158.615	22.7334
426872	158.872	22.7885
426873	159.13	22.843
426874	159.389	22.8968
426875	159.647	22.9499
426876	159.906	23.0025
426877	160.165	23.0543
426878	160.424	23.1056
426879	160.684	23.1561
426880	160.944	23.2061
426881	161.204	23.2553
426882	161.464	23.3039
426883	161.725	23.3519
426884	161.985	23.3992
426885	162.246	23.4458
426886	162.508	23.4918
426887	162.769	23.5371
426888	163.031	23.5817
426889	163.293	23.6257
426890	163.555	23.669
426891	163.817	23.7116
426892	164.08	23.7536
426893	164.343	23.7949
426894	164.605	23.8355
426895	164.869	23.8755
426896	165.132	23.9147
426897	165.396	23.9533
426898	165.659	23.9912
426899	165.923	24.0284
426900	166.188	24.065
426901	166.452	24.1008
426902	166.716	24.136
426903	166.981	24.1705
426904	167.246	24.2043
426905	167.511	24.2374
426906	167.776	24.2698
426907	168.042	24.3016
426908	168.307	24.3326
426909	168.573	24.3629
426910	168.839	24.3926
426911	169.105	24.4216
426912	169.371	24.4498
426913	169.638	24.4774
426914	169.904	24.5042
426915	170.171	24.5304
426916	170.437	24.5559
426917	170.704	24.5806
426918	170.971	24.6047
426919	171.238	24.6281
426920	171.506	24.6507
426921	171.773	24.6727
426922	172.041	24.6939
426923	172.308	24.7145
426924	172.576	24.7343
426925	172.844	24.7534
426926	173.112	24.7719
426927	173.38	24.7896
426928	173.648	24.8066
426929	173.916	24.8229
426930	174.184	24.8385
426931	174.453	24.8533
426932	174.721	24.8675
426933	174.99	24.8809
426934	175.258	24.8937
426935	175.527	24.9057
426936	175.796	24.917
426937	176.064	24.9276
426938	176.333	24.9375
426939	176.602	24.9466
426940	176.871	24.9551
426941	177.14	24.9628
426942	177.409	24.9698
426943	177.678	24.9762
426944	177.947	24.9817
426945	178.216	24.9866
426946	178.485	24.9908
426947	178.755	24.9942
426948	179.024	24.9969
426949	179.293	24.9989
426950	179.562	25.0002
426951	179.831	25.0008
426952	180.101	25.0006
426953	180.37	24.9998
426954	180.639	24.9982
426955	180.908	24.9959
426956	181.177	24.9929
426957	181.447	24.9892
426958	181.716	24.9847
426959	181.985	24.9796
426960	182.254	24.9737
426961	182.523	24.9671
426962	182.792	24.9598
426963	183.061	24.9517
426964	183.33	24.943
426965	183.599	24.9335
426966	183.867	24.9234
426967	184.136	24.9125
426968	184.405	24.9009
426969	184.673	24.8886
426970	184.942	24.8755
426971	185.21	24.8618
426972	185.479	24.8474
426973	185.747	24.8322
426974	186.015	24.8163
426975	186.284	24.7997
426976	186.552	24.7824
426977	186.82	24.7644
426978	187.088	24.7457
426979	187.355	24.7263
426980	187.623	24.7062
426981	187.891	24.6854
426982	188.158	24.6638
426983	188.425	24.6416
426984	188.692	24.6186
426985	188.96	24.595
426986	189.227	24.5706
426987	189.493	24.5456
426988	189.76	24.5198
426989	190.027	24.4934
426990	190.293	24.4662
426991	190.559	24.4384
426992	190.825	24.4098
426993	191.091	24.3806
426994	191.357	24.3506
426995	191.623	24.32
426996	191.888	24.2887
426997	192.154	24.2567
426998	192.419	24.224
426999	192.684	24.1906
427000	192.948	24.1565
427001	193.213	24.1217
427002	193.477	24.0862
427003	193.742	24.0501
427004	194.006	24.0133
427005	194.27	23.9758
427006	194.533	23.9376
427007	194.797	23.8987
427008	195.06	23.8592
427009	195.323	23.8189
427010	195.586	23.778
427011	195.849	23.7365
427012	196.111	23.6942
427013	196.373	23.6513
427014	196.635	23.6077
427015	196.897	23.5635
427016	197.159	23.5185
427017	197.42	23.473
427018	197.681	23.4267
427019	197.942	23.3798
427020	198.203	23.3322
427021	198.463	23.284
427022	198.723	23.2351
427023	198.983	23.1856
427024	199.243	23.1354
427025	199.502	23.0845
427026	199.761	23.033
427027	200.02	22.9809
427028	200.279	22.9281
427029	200.537	22.8746
427030	200.796	22.8205
427031	201.053	22.7658
427032	201.311	22.7104
427033	201.568	22.6544
427034	201.825	22.5978
427035	202.082	22.5405
427036	202.339	22.4826
427037	202.595	22.424
427038	202.851	22.3648
427039	203.107	22.305
427040	203.362	22.2446
427041	203.617	22.1836
427042	203.872	22.1219
427043	204.127	22.0596
427044	204.381	21.9967
427045	204.635	21.9331
427046	204.889	21.869
427047	205.142	21.8042
427048	205.395	21.7389
427049	205.648	21.6729
427050	205.9	21.6063
427051	206.153	21.5391
427052	206.404	21.4713
427053	206.656	21.4029
427054	206.907	21.3339
427055	207.158	21.2644
427056	207.409	21.1942
427057	207.659	21.1234
427058	207.909	21.052
427059	208.159	20.9801
427060	208.408	20.9076
427061	208.658	20.8344
427062	208.906	20.7607
427063	209.155	20.6865
427064	209.403	20.6116
427065	209.651	20.5362
427066	209.898	20.4602
427067	210.145	20.3836
427068	210.392	20.3064
427069	210.639	20.2287
427070	210.885	20.1505
427071	211.131	20.0716
427072	211.376	19.9922
427073	211.621	19.9123
427074	211.866	19.8317
427075	212.111	19.7507
427076	212.355	19.6691
427077	212.599	19.5869
427078	212.842	19.5042
427079	213.086	19.4209
427080	213.328	19.3371
427081	213.571	19.2528
427082	213.813	19.1679
427083	214.055	19.0825
427084	214.297	18.9966
427085	214.538	18.9101
427086	214.779	18.8231
427087	215.019	18.7356
427088	215.259	18.6475
427089	215.499	18.5589
427090	215.739	18.4698
427091	215.978	18.3802
427092	216.217	18.2901
427093	216.455	18.1994
427094	216.693	18.1083
427095	216.931	18.0166
427096	217.168	17.9245
427097	217.406	17.8318
427098	217.642	17.7386
427099	217.879	17.645
427100	218.115	17.5508
427101	218.351	17.4562
427102	218.586	17.361
427103	218.821	17.2654
427104	219.056	17.1692
427105	219.29	17.0726
427106	219.524	16.9755
427107	219.758	16.878
427108	219.991	16.7799
427109	220.224	16.6814
427110	220.457	16.5824
427111	220.689	16.4829
427112	220.921	16.383
427113	221.153	16.2825
427114	221.384	16.1817
427115	221.615	16.0803
427116	221.846	15.9786
427117	222.076	15.8763
427118	222.306	15.7736
427119	222.536	15.6704
427120	222.765	15.5668
427121	222.994	15.4628
427122	223.223	15.3583
427123	223.451	15.2533
427124	223.679	15.1479
427125	223.907	15.0421
427126	224.134	14.9359
427127	224.361	14.8292
427128	224.588	14.722
427129	224.814	14.6145
427130	225.04	14.5065
427131	225.266	14.3981
427132	225.491	14.2893
427133	225.716	14.18
427134	225.941	14.0704
427135	226.165	13.9603
427136	226.389	13.8498
427137	226.613	13.7389
427138	226.836	13.6275
427139	227.059	13.5158
427140	227.282	13.4037
427141	227.505	13.2912
427142	227.727	13.1782
427143	227.949	13.0649
427144	228.17	12.9512
427145	228.391	12.8371
427146	228.612	12.7226
427147	228.833	12.6077
427148	229.053	12.4924
427149	229.273	12.3767
427150	229.492	12.2607
427151	229.712	12.1443
427152	229.931	12.0275
427153	230.149	11.9103
427154	230.368	11.7927
427155	230.586	11.6748
427156	230.804	11.5565
427157	231.021	11.4379
427158	231.238	11.3188
427159	231.455	11.1995
427160	231.672	11.0797
427161	231.888	10.9596
427162	232.104	10.8392
427163	232.32	10.7184
427164	232.535	10.5972
427165	232.751	10.4757
427166	232.965	10.3538
427167	233.18	10.2316
427168	233.394	10.1091
427169	233.608	9.98623
427170	233.822	9.86302
427171	234.035	9.73947
427172	234.249	9.61558
427173	234.461	9.49136
427174	234.674	9.36682
427175	234.886	9.24195
427176	235.098	9.11675
427177	235.31	8.99123
427178	235.522	8.86539
427179	235.733	8.73923
427180	235.944	8.61275
427181	236.155	8.48596
427182	236.365	8.35886
427183	236.575	8.23145
427184	236.785	8.10372
427185	236.995	7.9757
427186	237.205	7.84737
427187	237.414	7.71874
427188	237.623	7.5898
427189	237.831	7.46057
427190	238.04	7.33105
427191	238.248	7.20123
427192	238.456	7.07112
427193	238.664	6.94072
427194	238.871	6.81003
427195	239.078	6.67906
427196	239.285	6.54781
427197	239.492	6.41627
427198	239.698	6.28445
427199	239.905	6.15236
427200	240.111	6.01999
427201	240.317	5.88735
427202	240.522	5.75444
427203	240.728	5.62126
427204	240.933	5.48781
427205	241.138	5.35409
427206	241.342	5.22012
427207	241.547	5.08588
427208	241.751	4.95138
427209	241.955	4.81663
427210	242.159	4.68162
427211	242.363	4.54635
427212	242.566	4.41084
427213	242.769	4.27508
427214	242.972	4.13906
427215	243.175	4.00281
427216	243.378	3.86631
427217	243.58	3.72957
427218	243.782	3.59258
427219	243.985	3.45537
427220	244.186	3.31791
427221	244.388	3.18022
427222	244.59	3.0423
427223	244.791	2.90415
427224	244.992	2.76577
427225	245.193	2.62717
427226	245.394	2.48834
427227	245.594	2.34929
427228	245.795	2.21001
427229	245.995	2.07052
427230	246.195	1.93082
427231	246.395	1.79089
427232	246.595	1.65076
427233	246.794	1.51041
427234	246.993	1.36986
427235	247.193	1.22909
427236	247.392	1.08813
427237	247.591	0.946954
427238	247.79	0.80558
427239	247.988	0.664006
427240	248.187	0.522234
427241	248.385	0.380266
427242	248.583	0.238104
427243	248.781	0.0957489
427244	248.979	-0.0467969
427245	249.177	-0.189531
427246	249.375	-0.332453
427247	249.572	-0.47556
427248	249.77	-0.61885
427249	249.967	-0.762322
427250	250.164	-0.905974
427251	250.361	-1.0498
427252	250.558	-1.19381
427253	250.755	-1.33799
427254	250.951	-1.48234
427255	251.148	-1.62687
427256	251.344	-1.77156
427257	251.541	-1.91642
427258	251.737	-2.06145
427259	251.933	-2.20663
427260	252.129	-2.35198
427261	252.325	-2.4975
427262	252.521	-2.64316
427263	252.717	-2.78899
427264	252.912	-2.93497
427265	253.108	-3.0811
427266	253.303	-3.22739
427267	253.499	-3.37382
427268	253.694	-3.5204
427269	253.889	-3.66713
427270	254.084	-3.814
427271	254.279	-3.96102
427272	254.474	-4.10817
427273	254.669	-4.25547
427274	254.864	-4.4029
427275	255.059	-4.55046
427276	255.254	-4.69816
427277	255.448	-4.846
427278	255.643	-4.99396
427279	255.838	-5.14205
427280	256.032	-5.29026
427281	256.227	-5.43861
427282	256.421	-5.58707
427283	256.615	-5.73566
427284	256.81	-5.88436
427285	257.004	-6.03319
427286	257.198	-6.18213
427287	257.392	-6.33118
427288	257.587	-6.48035
427289	257.781	-6.62963
427290	257.975	-6.77902
427291	258.169	-6.92852
427292	258.363	-7.07812
427293	258.557	-7.22782
427294	258.751	-7.37763
427295	258.945	-7.52754
427296	259.139	-7.67755
427297	259.333	-7.82766
427298	259.527	-7.97786
427299	259.721	-8.12815
427300	259.915	-8.27854
427301	260.109	-8.42902
427302	260.303	-8.57958
427303	260.497	-8.73024
427304	260.691	-8.88098
427305	260.885	-9.0318
427306	261.079	-9.1827
427307	261.274	-9.33369
427308	261.468	-9.48475
427309	261.662	-9.63589
427310	261.856	-9.7871
427311	262.05	-9.93839
427312	262.244	-10.0897
427313	262.439	-10.2412
427314	262.633	-10.3927
427315	262.827	-10.5442
427316	263.021	-10.6959
427317	263.216	-10.8476
427318	263.41	-10.9993
427319	263.605	-11.1511
427320	263.799	-11.303
427321	263.994	-11.4549
427322	264.189	-11.6069
427323	264.384	-11.7589
427324	264.578	-11.911
427325	264.773	-12.0631
427326	264.968	-12.2153
427327	265.163	-12.3675
427328	265.358	-12.5198
427329	265.553	-12.6721
427330	265.749	-12.8245
427331	265.944	-12.9768
427332	266.14	-13.1293
427333	266.335	-13.2817
427334	266.531	-13.4342
427335	266.726	-13.5867
427336	266.922	-13.7393
427337	267.118	-13.8919
427338	267.314	-14.0445
427339	267.51	-14.1971
427340	267.707	-14.3498
427341	267.903	-14.5025
427342	268.1	-14.6552
427343	268.296	-14.8079
427344	268.493	-14.9606
427345	268.69	-15.1133
427346	268.887	-15.2661
427347	269.084	-15.4189
427348	269.281	-15.5716
427349	269.479	-15.7244
427350	269.676	-15.8772
427351	269.874	-16.03
427352	270.072	-16.1828
427353	270.27	-16.3356
427354	270.468	-16.4883
427355	270.666	-16.6411
427356	270.865	-16.7939
427357	271.064	-16.9467
427358	271.262	-17.0994
427359	271.461	-17.2522
427360	271.661	-17.4049
427361	271.86	-17.5576
427362	272.059	-17.7103
427363	272.259	-17.863
427364	272.459	-18.0157
427365	272.659	-18.1683
427366	272.86	-18.3209
427367	273.06	-18.4735
427368	273.261	-18.626
427369	273.462	-18.7786
427370	273.663	-18.9311
427371	273.864	-19.0835
427372	274.066	-19.2359
427373	274.267	-19.3883
427374	274.469	-19.5407
427375	274.672	-19.693
427376	274.874	-19.8452
427377	275.077	-19.9975
427378	275.28	-20.1496
427379	275.483	-20.3017
427380	275.686	-20.4538
427381	275.89	-20.6058
427382	276.094	-20.7578
427383	276.298	-20.9097
427384	276.502	-21.0615
427385	276.707	-21.2133
427386	276.912	-21.365
427387	277.117	-21.5166
427388	277.323	-21.6682
427389	277.528	-21.8197
427390	277.734	-21.9712
427391	277.941	-22.1225
427392	278.147	-22.2738
427393	278.354	-22.425
427394	278.561	-22.5762
427395	278.769	-22.7272
427396	278.977	-22.8782
427397	279.185	-23.0291
427398	279.393	-23.1798
427399	279.602	-23.3305
427400	279.811	-23.4811
427401	280.02	-23.6317
427402	280.23	-23.7821
427403	280.44	-23.9324
427404	280.65	-24.0826
427405	280.861	-24.2327
427406	281.072	-24.3827
427407	281.283	-24.5326
427408	281.495	-24.6824
427409	281.707	-24.8321
427410	281.919	-24.9816
427411	282.132	-25.1311
427412	282.345	-25.2804
427413	282.559	-25.4296
427414	282.772	-25.5787
427415	282.987	-25.7276
427416	283.201	-25.8764
427417	283.416	-26.0251
427418	283.632	-26.1737
427419	283.847	-26.3221
427420	284.063	-26.4704
427421	284.28	-26.6186
427422	284.497	-26.7666
427423	284.714	-26.9144
427424	284.932	-27.0621
427425	285.15	-27.2097
427426	285.369	-27.3571
427427	285.588	-27.5044
427428	285.807	-27.6515
427429	286.027	-27.7984
427430	286.247	-27.9452
427431	286.468	-28.0918
427432	286.689	-28.2383
427433	286.911	-28.3845
427434	287.133	-28.5306
427435	287.356	-28.6766
427436	287.579	-28.8223
427437	287.802	-28.9679
427438	288.026	-29.1133
427439	288.251	-29.2585
427440	288.475	-29.4035
427441	288.701	-29.5484
427442	288.927	-29.693
427443	289.153	-29.8375
427444	289.38	-29.9817
427445	289.607	-30.1258
427446	289.835	-30.2696
427447	290.063	-30.4132
427448	290.292	-30.5567
427449	290.522	-30.6999
427450	290.752	-30.8429
427451	290.982	-30.9857
427452	291.213	-31.1282
427453	291.444	-31.2706
427454	291.676	-31.4127
427455	291.909	-31.5546
427456	292.142	-31.6963
427457	292.376	-31.8377
427458	292.61	-31.9789
427459	292.845	-32.1198
427460	293.08	-32.2605
427461	293.316	-32.401
427462	293.553	-32.5412
427463	293.79	-32.6812
427464	294.027	-32.8209
427465	294.266	-32.9603
427466	294.504	-33.0995
427467	294.744	-33.2384
427468	294.984	-33.3771
427469	295.225	-33.5154
427470	295.466	-33.6536
427471	295.708	-33.7914
427472	295.95	-33.9289
427473	296.193	-34.0662
427474	296.437	-34.2032
427475	296.681	-34.3399
427476	296.926	-34.4763
427477	297.172	-34.6124
427478	297.418	-34.7482
427479	297.665	-34.8837
427480	297.913	-35.0189
427481	298.161	-35.1538
427482	298.41	-35.2884
427483	298.66	-35.4227
427484	298.91	-35.5566
427485	299.161	-35.6902
427486	299.413	-35.8235
427487	299.665	-35.9565
427488	299.918	-36.0891
427489	300.172	-36.2214
427490	300.426	-36.3534
427491	300.681	-36.485
427492	300.937	-36.6163
427493	301.194	-36.7472
427494	301.451	-36.8777
427495	301.709	-37.0079
427496	301.968	-37.1378
427497	302.227	-37.2673
427498	302.487	-37.3964
427499	302.748	-37.5251
427500	303.01	-37.6535
427501	303.272	-37.7814
427502	303.535	-37.909
427503	303.799	-38.0363
427504	304.064	-38.1631
427505	304.329	-38.2895
427506	304.596	-38.4155
427507	304.863	-38.5411
427508	305.13	-38.6664
427509	305.399	-38.7912
427510	305.668	-38.9155
427511	305.938	-39.0395
427512	306.209	-39.1631
427513	306.481	-39.2862
427514	306.753	-39.4089
427515	307.027	-39.5311
427516	307.301	-39.6529
427517	307.576	-39.7743
427518	307.852	-39.8952
427519	308.128	-40.0157
427520	308.406	-40.1357
427521	308.684	-40.2553
427522	308.963	-40.3744
427523	309.243	-40.493
427524	309.524	-40.6112
427525	309.805	-40.7289
427526	310.088	-40.8461
427527	310.371	-40.9628
427528	310.655	-41.079
427529	310.94	-41.1947
427530	311.226	-41.31
427531	311.512	-41.4247
427532	311.8	-41.5389
427533	312.088	-41.6527
427534	312.378	-41.7659
427535	312.668	-41.8785
427536	312.959	-41.9907
427537	313.251	-42.1023
427538	313.544	-42.2134
427539	313.838	-42.324
427540	314.132	-42.434
427541	314.428	-42.5434
427542	314.724	-42.6524
427543	315.021	-42.7607
427544	315.319	-42.8685
427545	315.619	-42.9757
427546	315.918	-43.0824
427547	316.219	-43.1885
427548	316.521	-43.294
427549	316.824	-43.3989
427550	317.127	-43.5033
427551	317.432	-43.607
427552	317.737	-43.7102
427553	318.044	-43.8127
427554	318.351	-43.9146
427555	318.659	-44.016
427556	318.968	-44.1167
427557	319.278	-44.2167
427558	319.589	-44.3162
427559	319.901	-44.415
427560	320.214	-44.5132
427561	320.527	-44.6108
427562	320.842	-44.7077
427563	321.157	-44.8039
427564	321.474	-44.8995
427565	321.791	-44.9945
427566	322.109	-45.0887
427567	322.428	-45.1824
427568	322.749	-45.2753
427569	323.07	-45.3675
427570	323.391	-45.4591
427571	323.714	-45.55
427572	324.038	-45.6402
427573	324.363	-45.7297
427574	324.688	-45.8184
427575	325.015	-45.9065
427576	325.342	-45.9939
427577	325.671	-46.0805
427578	326	-46.1664
427579	326.33	-46.2516
427580	326.661	-46.3361
427581	326.993	-46.4198
427582	327.326	-46.5028
427583	327.66	-46.585
427584	327.994	-46.6665
427585	328.33	-46.7472
427586	328.666	-46.8272
427587	329.004	-46.9064
427588	329.342	-46.9848
427589	329.681	-47.0625
427590	330.021	-47.1393
427591	330.362	-47.2154
427592	330.703	-47.2907
427593	331.046	-47.3652
427594	331.389	-47.4389
427595	331.733	-47.5118
427596	332.079	-47.5839
427597	332.424	-47.6552
427598	332.771	-47.7256
427599	333.119	-47.7953
427600	333.467	-47.8641
427601	333.817	-47.9321
427602	334.167	-47.9992
427603	334.518	-48.0655
427604	334.869	-48.131
427605	335.222	-48.1956
427606	335.575	-48.2593
427607	335.929	-48.3222
427608	336.284	-48.3843
427609	336.64	-48.4454
427610	336.996	-48.5057
427611	337.353	-48.5652
427612	337.711	-48.6237
427613	338.07	-48.6814
427614	338.429	-48.7382
427615	338.789	-48.7941
427616	339.15	-48.849
427617	339.511	-48.9031
427618	339.873	-48.9563
427619	340.236	-49.0086
427620	340.6	-49.06
427621	340.964	-49.1105
427622	341.329	-49.16
427623	341.695	-49.2086
427624	342.061	-49.2563
427625	342.428	-49.3031
427626	342.795	-49.3489
427627	343.163	-49.3938
427628	343.532	-49.4378
427629	343.901	-49.4808
427630	344.271	-49.5229
427631	344.641	-49.564
427632	345.012	-49.6042
427633	345.384	-49.6434
427634	345.756	-49.6817
427635	346.128	-49.719
427636	346.501	-49.7553
427637	346.875	-49.7907
427638	347.249	-49.8251
427639	347.623	-49.8585
427640	347.998	-49.891
427641	348.374	-49.9225
427642	348.75	-49.9529
427643	349.126	-49.9825
427644	349.503	-50.011
427645	349.88	-50.0385
427646	350.257	-50.0651
427647	350.635	-50.0907
427648	351.013	-50.1152
427649	351.392	-50.1388
427650	351.771	-50.1614
427651	352.15	-50.183
427652	352.529	-50.2035
427653	352.909	-50.2231
427654	353.289	-50.2417
427655	353.669	-50.2592
427656	354.05	-50.2758
427657	354.431	-50.2913
427658	354.812	-50.3059
427659	355.193	-50.3194
427660	355.574	-50.3319
427661	355.956	-50.3434
427662	356.338	-50.3539
427663	356.72	-50.3634
427664	357.102	-50.3719
427665	357.484	-50.3793
427666	357.866	-50.3857
427667	358.248	-50.3911
427668	358.631	-50.3955
427669	359.013	-50.3989
427670	359.396	-50.4013
427671	359.778	-50.4026
427672	0.16049	-50.4029
427673	0.543012	-50.4022
427674	0.925515	-50.4005
427675	1.30799	-50.3978
427676	1.69041	-50.394
427677	2.07277	-50.3892
427678	2.45505	-50.3834
427679	2.83724	-50.3766
427680	3.21932	-50.3688
504000	358.102	-60.9784
504001	358.575	-60.9829
504002	359.048	-60.9861
504003	359.521	-60.988
504004	359.994	-60.9887
504005	0.46646	-60.9881
504006	0.939459	-60.9862
504007	1.41239	-60.9831
504008	1.88523	-60.9788
504009	2.35793	-60.9731
504010	2.83047	-60.9663
504011	3.30282	-60.9581
504012	3.77493	-60.9487
504013	4.24679	-60.9381
504014	4.71835	-60.9262
504015	5.18958	-60.913
504016	5.66046	-60.8986
504017	6.13094	-60.883
504018	6.60101	-60.8661
504019	7.07062	-60.848
504020	7.53974	-60.8286
504021	8.00836	-60.808
504022	8.47642	-60.7861
504023	8.94391	-60.763
504024	9.41079	-60.7387
504025	9.87704	-60.7132
504026	10.3426	-60.6864
504027	10.8075	-60.6585
504028	11.2717	-60.6293
504029	11.7351	-60.5989
504030	12.1977	-60.5673
504031	12.6595	-60.5345
504032	13.1205	-60.5005
504033	13.5806	-60.4653
504034	14.0399	-60.4289
504035	14.4982	-60.3913
504036	14.9556	-60.3525
504037	15.412	-60.3126
504038	15.8674	-60.2715
504039	16.3219	-60.2292
504040	16.7752	-60.1858
504041	17.2275	-60.1412
504042	17.6788	-60.0955
504043	18.1289	-60.0486
504044	18.5779	-60.0006
504045	19.0258	-59.9515
504046	19.4724	-59.9012
504047	19.9179	-59.8498
504048	20.3622	-59.7973
504049	20.8053	-59.7437
504050	21.2471	-59.689
504051	21.6876	-59.6332
504052	22.1269	-59.5763
504053	22.5648	-59.5183
504054	23.0014	-59.4593
504055	23.4367	-59.3991
504056	23.8707	-59.338
504057	24.3033	-59.2757
504058	24.7345	-59.2124
504059	25.1643	-59.1481
504060	25.5927	-59.0828
504061	26.0197	-59.0164
504062	26.4452	-58.949
504063	26.8694	-58.8806
504064	27.292	-58.8111
504065	27.7132	-58.7407
504066	28.1329	-58.6693
504067	28.5511	-58.5969
504068	28.9678	-58.5235
504069	29.383	-58.4492
504070	29.7967	-58.3739
504071	30.2089	-58.2976
504072	30.6196	-58.2204
504073	31.0287	-58.1423
504074	31.4362	-58.0632
504075	31.8422	-57.9832
504076	32.2467	-57.9023
504077	32.6496	-57.8205
504078	33.0509	-57.7377
504079	33.4506	-57.6541
504080	33.8488	-57.5696
504081	34.2454	-57.4842
504082	34.6404	-57.398
504083	35.0338	-57.3108
504084	35.4256	-57.2229
504085	35.8159	-57.134
504086	36.2045	-57.0444
504087	36.5915	-56.9539
504088	36.977	-56.8625
504089	37.3609	-56.7704
504090	37.7431	-56.6774
504091	38.1238	-56.5837
504092	38.5028	-56.4891
504093	38.8803	-56.3938
504094	39.2562	-56.2977
504095	39.6305	-56.2008
504096	40.0032	-56.1031
504097	40.3743	-56.0047
504098	40.7438	-55.9055
504099	41.1117	-55.8056
504100	41.478	-55.705
504101	41.8428	-55.6036
504102	42.206	-55.5015
504103	42.5676	-55.3987
504104	42.9277	-55.2951
504105	43.2861	-55.1909
504106	43.6431	-55.086
504107	43.9984	-54.9804
504108	44.3522	-54.8741
504109	44.7045	-54.7672
504110	45.0552	-54.6595
504111	45.4044	-54.5513
504112	45.7521	-54.4423
504113	46.0982	-54.3328
504114	46.4428	-54.2226
504115	46.7859	-54.1117
504116	47.1275	-54.0002
504117	47.4676	-53.8882
504118	47.8062	-53.7755
504119	48.1433	-53.6622
504120	48.4789	-53.5483
504121	48.813	-53.4338
504122	49.1457	-53.3187
504123	49.4769	-53.2031
504124	49.8067	-53.0868
504125	50.135	-52.97
504126	50.4619	-52.8527
504127	50.7873	-52.7348
504128	51.1114	-52.6164
504129	51.434	-52.4974
504130	51.7552	-52.3778
504131	52.075	-52.2578
504132	52.3934	-52.1372
504133	52.7104	-52.0161
504134	53.0261	-51.8945
504135	53.3404	-51.7724
504136	53.6533	-51.6498
504137	53.9649	-51.5267
504138	54.2751	-51.4032
504139	54.584	-51.2791
504140	54.8916	-51.1546
504141	55.1979	-51.0295
504142	55.5028	-50.9041
504143	55.8065	-50.7781
504144	56.1089	-50.6518
504145	56.41	-50.5249
504146	56.7098	-50.3977
504147	57.0084	-50.2699
504148	57.3057	-50.1418
504149	57.6017	-50.0132
504150	57.8965	-49.8842
504151	58.1901	-49.7548
504152	58.4825	-49.625
504153	58.7737	-49.4948
504154	59.0636	-49.3641
504155	59.3524	-49.2331
504156	59.64	-49.1017
504157	59.9264	-48.9699
504158	60.2116	-48.8377
504159	60.4957	-48.7052
504160	60.7787	-48.5722
504161	61.0605	-48.4389
504162	61.3411	-48.3053
504163	61.6207	-48.1713
504164	61.8991	-48.0369
504165	62.1765	-47.9022
504166	62.4527	-47.7671
504167	62.7279	-47.6317
504168	63.0019	-47.496
504169	63.275	-47.3599
504170	63.5469	-47.2235
504171	63.8178	-47.0868
504172	64.0877	-46.9498
504173	64.3565	-46.8124
504174	64.6243	-46.6748
504175	64.8911	-46.5368
504176	65.1569	-46.3985
504177	65.4217	-46.26
504178	65.6855	-46.1211
504179	65.9483	-45.982
504180	66.2101	-45.8425
504181	66.471	-45.7028
504182	66.7309	-45.5629
504183	66.9899	-45.4226
504184	67.2479	-45.2821
504185	67.505	-45.1413
504186	67.7612	-45.0002
504187	68.0164	-44.8589
504188	68.2708	-44.7174
504189	68.5242	-44.5755
504190	68.7768	-44.4335
504191	69.0285	-44.2912
504192	69.2793	-44.1486
504193	69.5293	-44.0059
504194	69.7783	-43.8629
504195	70.0266	-43.7196
504196	70.274	-43.5761
504197	70.5205	-43.4325
504198	70.7662	-43.2886
504199	71.0112	-43.1444
504200	71.2553	-43.0001
504201	71.4986	-42.8556
504202	71.7411	-42.7108
504203	71.9828	-42.5659
504204	72.2237	-42.4207
504205	72.4638	-42.2754
504206	72.7032	-42.1298
504207	72.9419	-41.9841
504208	73.1797	-41.8382
504209	73.4169	-41.6921
504210	73.6533	-41.5458
504211	73.8889	-41.3994
504212	74.1239	-41.2528
504213	74.3581	-41.106
504214	74.5916	-40.959
504215	74.8244	-40.8119
504216	75.0565	-40.6646
504217	75.288	-40.5171
504218	75.5187	-40.3695
504219	75.7488	-40.2218
504220	75.9782	-40.0739
504221	76.207	-39.9258
504222	76.4351	-39.7776
504223	76.6625	-39.6293
504224	76.8893	-39.4808
504225	77.1155	-39.3322
504226	77.341	-39.1834
504227	77.5659	-39.0345
504228	77.7903	-38.8855
504229	78.0139	-38.7364
504230	78.237	-38.5871
504231	78.4595	-38.4377
504232	78.6815	-38.2882
504233	78.9028	-38.1386
504234	79.1235	-37.9888
504235	79.3437	-37.839
504236	79.5633	-37.6891
504237	79.7824	-37.539
504238	80.0009	-37.3888
504239	80.2188	-37.2386
504240	80.4362	-37.0882
504241	80.6531	-36.9378
504242	80.8694	-36.7872
504243	81.0853	-36.6366
504244	81.3006	-36.4858
504245	81.5154	-36.335
504246	81.7296	-36.1841
504247	81.9434	-36.0331
504248	82.1567	-35.8821
504249	82.3695	-35.7309
504250	82.5818	-35.5797
504251	82.7937	-35.4284
504252	83.005	-35.2771
504253	83.2159	-35.1256
504254	83.4263	-34.9741
504255	83.6363	-34.8226
504256	83.8458	-34.671
504257	84.0549	-34.5193
504258	84.2635	-34.3675
504259	84.4717	-34.2157
504260	84.6795	-34.0639
504261	84.8868	-33.912
504262	85.0937	-33.7601
504263	85.3002	-33.6081
504264	85.5063	-33.456
504265	85.712	-33.3039
504266	85.9172	-33.1518
504267	86.1221	-32.9997
504268	86.3266	-32.8475
504269	86.5307	-32.6952
504270	86.7344	-32.543
504271	86.9378	-32.3907
504272	87.1407	-32.2383
504273	87.3433	-32.086
504274	87.5456	-31.9336
504275	87.7474	-31.7812
504276	87.9489	-31.6288
504277	88.1501	-31.4763
504278	88.3509	-31.3239
504279	88.5514	-31.1714
504280	88.7516	-31.0189
504281	88.9514	-30.8664
504282	89.1509	-30.7139
504283	89.35	-30.5614
504284	89.5489	-30.4089
504285	89.7474	-30.2563
504286	89.9456	-30.1038
504287	90.1435	-29.9513
504288	90.3411	-29.7988
504289	90.5385	-29.6462
504290	90.7355	-29.4937
504291	90.9322	-29.3412
504292	91.1286	-29.1887
504293	91.3248	-29.0362
504294	91.5207	-28.8837
504295	91.7163	-28.7313
504296	91.9116	-28.5788
504297	92.1067	-28.4264
504298	92.3015	-28.2739
504299	92.4961	-28.1216
504300	92.6904	-27.9692
504301	92.8844	-27.8168
504302	93.0783	-27.6645
504303	93.2718	-27.5122
504304	93.4651	-27.3599
504305	93.6582	-27.2077
504306	93.8511	-27.0555
504307	94.0437	-26.9033
504308	94.2361	-26.7512
504309	94.4283	-26.5991
504310	94.6203	-26.4471
504311	94.8121	-26.295
504312	95.0036	-26.1431
504313	95.195	-25.9912
504314	95.3861	-25.8393
504315	95.5771	-25.6874
504316	95.7678	-25.5357
504317	95.9584	-25.3839
504318	96.1487	-25.2322
504319	96.3389	-25.0806
504320	96.5289	-24.9291
504321	96.7188	-24.7775
504322	96.9084	-24.6261
504323	97.0979	-24.4747
504324	97.2872	-24.3234
504325	97.4764	-24.1721
504326	97.6654	-24.0209
504327	97.8542	-23.8698
504328	98.0429	-23.7187
504329	98.2314	-23.5677
504330	98.4198	-23.4168
504331	98.608	-23.2659
504332	98.7961	-23.1152
504333	98.9841	-22.9645
504334	99.1719	-22.8139
504335	99.3596	-22.6633
504336	99.5471	-22.5129
504337	99.7346	-22.3625
504338	99.9219	-22.2122
504339	100.109	-22.062
504340	100.296	-21.9119
504341	100.483	-21.7618
504342	100.67	-21.6119
504343	100.857	-21.4621
504344	101.043	-21.3123
504345	101.23	-21.1626
504346	101.416	-21.0131
504347	101.603	-20.8636
504348	101.789	-20.7143
504349	101.975	-20.565
504350	102.161	-20.4158
504351	102.347	-20.2668
504352	102.533	-20.1178
504353	102.719	-19.969
504354	102.904	-19.8203
504355	103.09	-19.6716
504356	103.276	-19.5231
504357	103.461	-19.3747
504358	103.647	-19.2265
504359	103.832	-19.0783
504360	104.017	-18.9302
504361	104.203	-18.7823
504362	104.388	-18.6345
504363	104.573	-18.4868
504364	104.758	-18.3393
504365	104.943	-18.1918
504366	105.128	-18.0445
504367	105.313	-17.8974
504368	105.498	-17.7503
504369	105.683	-17.6034
504370	105.868	-17.4566
504371	106.053	-17.31
504372	106.238	-17.1634
504373	106.422	-17.0171
504374	106.607	-16.8708
504375	106.792	-16.7247
504376	106.977	-16.5788
504377	107.161	-16.433
504378	107.346	-16.2873
504379	107.531	-16.1418
504380	107.715	-15.9964
504381	107.9	-15.8512
504382	108.085	-15.7061
504383	108.269	-15.5612
504384	108.454	-15.4165
504385	108.639	-15.2718
504386	108.823	-15.1274
504387	109.008	-14.9831
504388	109.193	-14.839
504389	109.378	-14.695
504390	109.562	-14.5512
504391	109.747	-14.4076
504392	109.932	-14.2641
504393	110.116	-14.1208
504394	110.301	-13.9776
504395	110.486	-13.8347
504396	110.671	-13.6919
504397	110.856	-13.5492
504398	111.041	-13.4068
504399	111.226	-13.2645
504400	111.411	-13.1224
504401	111.596	-12.9805
504402	111.781	-12.8388
504403	111.966	-12.6973
504404	112.151	-12.5559
504405	112.336	-12.4147
504406	112.521	-12.2737
504407	112.707	-12.1329
504408	112.892	-11.9923
504409	113.077	-11.8519
504410	113.263	-11.7117
504411	113.448	-11.5716
504412	113.634	-11.4318
504413	113.82	-11.2922
504414	114.005	-11.1527
504415	114.191	-11.0135
504416	114.377	-10.8745
504417	114.563	-10.7356
504418	114.749	-10.597
504419	114.935	-10.4586
504420	115.121	-10.3204
504421	115.307	-10.1824
504422	115.494	-10.0446
504423	115.68	-9.90706
504424	115.866	-9.7697
504425	116.053	-9.63257
504426	116.24	-9.49565
504427	116.426	-9.35895
504428	116.613	-9.22247
504429	116.8	-9.08622
504430	116.987	-8.95019
504431	117.174	-8.81438
504432	117.362	-8.6788
504433	117.549	-8.54346
504434	117.736	-8.40834
504435	117.924	-8.27346
504436	118.111	-8.1388
504437	118.299	-8.00439
504438	118.487	-7.87021
504439	118.675	-7.73627
504440	118.863	-7.60257
504441	119.051	-7.46912
504442	119.24	-7.3359
504443	119.428	-7.20293
504444	119.617	-7.07021
504445	119.805	-6.93774
504446	119.994	-6.80551
504447	120.183	-6.67354
504448	120.372	-6.54182
504449	120.561	-6.41035
504450	120.751	-6.27914
504451	120.94	-6.14819
504452	121.13	-6.0175
504453	121.32	-5.88707
504454	121.509	-5.7569
504455	121.699	-5.627
504456	121.89	-5.49736
504457	122.08	-5.36799
504458	122.27	-5.23889
504459	122.461	-5.11006
504460	122.652	-4.9815
504461	122.842	-4.85322
504462	123.033	-4.72521
504463	123.225	-4.59748
504464	123.416	-4.47003
504465	123.607	-4.34285
504466	123.799	-4.21597
504467	123.991	-4.08936
504468	124.183	-3.96304
504469	124.375	-3.83701
504470	124.567	-3.71127
504471	124.76	-3.58581
504472	124.952	-3.46065
504473	125.145	-3.33579
504474	125.338	-3.21122
504475	125.531	-3.08694
504476	125.724	-2.96297
504477	125.918	-2.8393
504478	126.111	-2.71593
504479	126.305	-2.59286
504480	126.499	-2.4701
504481	126.693	-2.34764
504482	126.888	-2.2255
504483	127.082	-2.10366
504484	127.277	-1.98214
504485	127.472	-1.86093
504486	127.667	-1.74004
504487	127.862	-1.61946
504488	128.058	-1.49921
504489	128.253	-1.37927
504490	128.449	-1.25966
504491	128.645	-1.14037
504492	128.841	-1.02141
504493	129.037	-0.902777
504494	129.234	-0.784472
504495	129.431	-0.666499
504496	129.628	-0.548858
504497	129.825	-0.431552
504498	130.022	-0.314582
504499	130.22	-0.197951
504500	130.417	-0.0816591
504501	130.615	0.0342912
504502	130.813	0.149898
504503	131.012	0.26516
504504	131.21	0.380076
504505	131.409	0.494643
504506	131.608	0.608859
504507	131.807	0.722724
504508	132.007	0.836235
504509	132.206	0.949391
504510	132.406	1.06219
504511	132.606	1.17463
504512	132.806	1.28671
504513	133.007	1.39842
504514	133.207	1.50978
504515	133.408	1.62076
504516	133.609	1.73138
504517	133.81	1.84163
504518	134.012	1.95151
504519	134.213	2.06102
504520	134.415	2.17015
504521	134.617	2.2789
504522	134.82	2.38728
504523	135.022	2.49527
504524	135.225	2.60289
504525	135.428	2.71012
504526	135.631	2.81696
504527	135.835	2.92342
504528	136.039	3.02949
504529	136.242	3.13517
504530	136.447	3.24046
504531	136.651	3.34535
504532	136.855	3.44985
504533	137.06	3.55395
504534	137.265	3.65765
504535	137.471	3.76095
504536	137.676	3.86384
504537	137.882	3.96633
504538	138.088	4.06842
504539	138.294	4.1701
504540	138.5	4.27136
504541	138.707	4.37222
504542	138.914	4.47266
504543	139.121	4.57268
504544	139.328	4.67229
504545	139.536	4.77148
504546	139.743	4.87025
504547	139.951	4.9686
504548	140.16	5.06652
504549	140.368	5.16402
504550	140.577	5.26109
504551	140.786	5.35772
504552	140.995	5.45393
504553	141.204	5.54971
504554	141.414	5.64505
504555	141.624	5.73995
504556	141.834	5.83442
504557	142.044	5.92844
504558	142.255	6.02203
504559	142.466	6.11517
504560	142.677	6.20786
504561	142.888	6.30011
504562	143.1	6.39191
504563	143.311	6.48325
504564	143.523	6.57415
504565	143.736	6.66459
504566	143.948	6.75458
504567	144.161	6.8441
504568	144.374	6.93317
504569	144.587	7.02178
504570	144.8	7.10992
504571	145.014	7.1976
504572	145.228	7.28482
504573	145.442	7.37156
504574	145.656	7.45784
504575	145.871	7.54365
504576	146.086	7.62898
504577	146.301	7.71383
504578	146.516	7.79821
504579	146.731	7.88212
504580	146.947	7.96554
504581	147.163	8.04848
504582	147.379	8.13093
504583	147.596	8.21291
504584	147.812	8.29439
504585	148.029	8.37539
504586	148.246	8.45589
504587	148.464	8.53591
504588	148.681	8.61543
504589	148.899	8.69445
504590	149.117	8.77298
504591	149.336	8.85101
504592	149.554	8.92854
504593	149.773	9.00557
504594	149.992	9.08209
504595	150.211	9.15811
504596	150.43	9.23362
504597	150.65	9.30863
504598	150.87	9.38312
504599	151.09	9.45711
504600	151.31	9.53057
504601	151.531	9.60353
504602	151.752	9.67597
504603	151.973	9.74789
504604	152.194	9.81929
504605	152.415	9.89017
504606	152.637	9.96052
504607	152.859	10.0304
504608	153.081	10.0997
504609	153.303	10.1684
504610	153.526	10.2367
504611	153.749	10.3044
504612	153.972	10.3716
504613	154.195	10.4382
504614	154.418	10.5044
504615	154.642	10.5699
504616	154.865	10.635
504617	155.089	10.6995
504618	155.314	10.7635
504619	155.538	10.8269
504620	155.763	10.8897
504621	155.988	10.9521
504622	156.213	11.0139
504623	156.438	11.0751
504624	156.663	11.1358
504625	156.889	11.1959
504626	157.115	11.2555
504627	157.341	11.3145
504628	157.567	11.373
504629	157.793	11.4309
504630	158.02	11.4883
504631	158.247	11.5451
504632	158.474	11.6013
504633	158.701	11.657
504634	158.928	11.7121
504635	159.156	11.7666
504636	159.384	11.8206
504637	159.612	11.874
504638	159.84	11.9268
504639	160.068	11.9791
504640	160.297	12.0308
504641	160.525	12.0819
504642	160.754	12.1325
504643	160.983	12.1824
504644	161.212	12.2318
504645	161.442	12.2807
504646	161.671	12.3289
504647	161.901	12.3766
504648	162.131	12.4236
504649	162.361	12.4701
504650	162.591	12.5161
504651	162.821	12.5614
504652	163.052	12.6061
504653	163.283	12.6503
504654	163.513	12.6938
504655	163.744	12.7368
504656	163.976	12.7792
504657	164.207	12.821
504658	164.438	12.8622
504659	164.67	12.9028
504660	164.902	12.9428
504661	165.134	12.9822
504662	165.366	13.021
504663	165.598	13.0593
504664	165.83	13.0969
504665	166.063	13.1339
504666	166.295	13.1703
504667	166.528	13.2062
504668	166.761	13.2414
504669	166.994	13.276
504670	167.227	13.31
504671	167.46	13.3434
504672	167.693	13.3762
504673	167.927	13.4084
504674	168.16	13.44
504675	168.394	13.4709
504676	168.628	13.5013
504677	168.862	13.5311
504678	169.096	13.5602
504679	169.33	13.5887
504680	169.564	13.6167
504681	169.799	13.644
504682	170.033	13.6706
504683	170.268	13.6967
504684	170.502	13.7222
504685	170.737	13.747
504686	170.972	13.7712
504687	171.207	13.7949
504688	171.442	13.8178
504689	171.677	13.8402
504690	171.912	13.862
504691	172.147	13.8831
504692	172.383	13.9036
504693	172.618	13.9235
504694	172.854	13.9428
504695	173.089	13.9614
504696	173.325	13.9794
504697	173.561	13.9968
504698	173.796	14.0136
504699	174.032	14.0298
504700	174.268	14.0453
504701	174.504	14.0602
504702	174.74	14.0745
504703	174.976	14.0881
504704	175.212	14.1011
504705	175.449	14.1135
504706	175.685	14.1253
504707	175.921	14.1365
504708	176.157	14.147
504709	176.394	14.1569
504710	176.63	14.1661
504711	176.866	14.1748
504712	177.103	14.1828
504713	177.339	14.1901
504714	177.576	14.1969
504715	177.812	14.203
504716	178.049	14.2085
504717	178.286	14.2133
504718	178.522	14.2176
504719	178.759	14.2212
504720	178.995	14.2241
504721	179.232	14.2265
504722	179.469	14.2282
504723	179.705	14.2293
504724	179.942	14.2297
504725	180.179	14.2295
504726	180.415	14.2287
504727	180.652	14.2273
504728	180.889	14.2252
504729	181.125	14.2225
504730	181.362	14.2192
504731	181.598	14.2152
504732	181.835	14.2106
504733	182.072	14.2054
504734	182.308	14.1996
504735	182.545	14.1931
504736	182.781	14.186
504737	183.018	14.1782
504738	183.254	14.1699
504739	183.49	14.1609
504740	183.727	14.1513
504741	183.963	14.141
504742	184.199	14.1301
504743	184.436	14.1186
504744	184.672	14.1065
504745	184.908	14.0937
504746	185.144	14.0804
504747	185.38	14.0664
504748	185.616	14.0517
504749	185.852	14.0365
504750	186.088	14.0206
504751	186.324	14.0041
504752	186.559	13.9869
504753	186.795	13.9692
504754	187.031	13.9508
504755	187.266	13.9318
504756	187.502	13.9122
504757	187.737	13.8919
504758	187.972	13.871
504759	188.208	13.8496
504760	188.443	13.8274
504761	188.678	13.8047
504762	188.913	13.7814
504763	189.148	13.7574
504764	189.382	13.7328
504765	189.617	13.7076
504766	189.852	13.6818
504767	190.086	13.6554
504768	190.321	13.6284
504769	190.555	13.6007
504770	190.789	13.5724
504771	191.023	13.5435
504772	191.257	13.5141
504773	191.491	13.4839
504774	191.725	13.4532
504775	191.958	13.4219
504776	192.192	13.39
504777	192.425	13.3574
504778	192.659	13.3243
504779	192.892	13.2905
504780	193.125	13.2562
504781	193.358	13.2212
504782	193.59	13.1857
504783	193.823	13.1495
504784	194.056	13.1127
504785	194.288	13.0754
504786	194.52	13.0374
504787	194.752	12.9988
504788	194.984	12.9597
504789	195.216	12.9199
504790	195.448	12.8796
504791	195.679	12.8386
504792	195.91	12.7971
504793	196.142	12.7549
504794	196.373	12.7122
504795	196.604	12.6689
504796	196.834	12.625
504797	197.065	12.5805
504798	197.295	12.5354
504799	197.526	12.4897
504800	197.756	12.4435
504801	197.986	12.3967
504802	198.215	12.3493
504803	198.445	12.3013
504804	198.674	12.2527
504805	198.904	12.2035
504806	199.133	12.1538
504807	199.362	12.1035
504808	199.59	12.0526
504809	199.819	12.0012
504810	200.047	11.9491
504811	200.276	11.8965
504812	200.504	11.8434
504813	200.731	11.7896
504814	200.959	11.7353
504815	201.187	11.6805
504816	201.414	11.625
504817	201.641	11.569
504818	201.868	11.5125
504819	202.094	11.4554
504820	202.321	11.3977
504821	202.547	11.3395
504822	202.773	11.2807
504823	202.999	11.2213
504824	203.225	11.1614
504825	203.451	11.101
504826	203.676	11.04
504827	203.901	10.9784
504828	204.126	10.9163
504829	204.351	10.8537
504830	204.575	10.7905
504831	204.799	10.7268
504832	205.023	10.6625
504833	205.247	10.5977
504834	205.471	10.5323
504835	205.694	10.4664
504836	205.918	10.4
504837	206.141	10.333
504838	206.364	10.2655
504839	206.586	10.1975
504840	206.809	10.129
504841	207.031	10.0599
504842	207.253	9.99027
504843	207.474	9.92014
504844	207.696	9.84948
504845	207.917	9.7783
504846	208.138	9.7066
504847	208.359	9.63438
504848	208.58	9.56165
504849	208.8	9.4884
504850	209.02	9.41463
504851	209.24	9.34035
504852	209.46	9.26556
504853	209.68	9.19026
504854	209.899	9.11446
504855	210.118	9.03815
504856	210.337	8.96133
504857	210.555	8.88402
504858	210.774	8.8062
504859	210.992	8.72788
504860	211.21	8.64906
504861	211.428	8.56975
504862	211.645	8.48994
504863	211.862	8.40965
504864	212.079	8.32886
504865	212.296	8.24758
504866	212.512	8.16581
504867	212.729	8.08356
504868	212.945	8.00082
504869	213.161	7.9176
504870	213.376	7.83391
504871	213.592	7.74973
504872	213.807	7.66507
504873	214.022	7.57994
504874	214.236	7.49433
504875	214.451	7.40826
504876	214.665	7.32171
504877	214.879	7.23469
504878	215.093	7.14721
504879	215.306	7.05926
504880	215.519	6.97084
504881	215.732	6.88197
504882	215.945	6.79263
504883	216.158	6.70284
504884	216.37	6.61259
504885	216.582	6.52189
504886	216.794	6.43073
504887	217.006	6.33912
504888	217.217	6.24706
504889	217.428	6.15455
504890	217.639	6.0616
504891	217.85	5.9682
504892	218.06	5.87436
504893	218.27	5.78008
504894	218.48	5.68536
504895	218.69	5.5902
504896	218.899	5.49461
504897	219.109	5.39858
504898	219.318	5.30213
504899	219.527	5.20524
504900	219.735	5.10792
504901	219.943	5.01018
504902	220.152	4.91201
504903	220.359	4.81341
504904	220.567	4.7144
504905	220.774	4.61497
504906	220.982	4.51511
504907	221.188	4.41485
504908	221.395	4.31417
504909	221.602	4.21307
504910	221.808	4.11157
504911	222.014	4.00965
504912	222.22	3.90733
504913	222.425	3.8046
504914	222.631	3.70147
504915	222.836	3.59794
504916	223.041	3.49401
504917	223.245	3.38967
504918	223.45	3.28495
504919	223.654	3.17982
504920	223.858	3.07431
504921	224.062	2.9684
504922	224.265	2.8621
504923	224.468	2.75542
504924	224.671	2.64835
504925	224.874	2.54089
504926	225.077	2.43305
504927	225.279	2.32483
504928	225.482	2.21624
504929	225.684	2.10726
504930	225.885	1.99791
504931	226.087	1.88819
504932	226.288	1.77809
504933	226.489	1.66763
504934	226.69	1.55679
504935	226.891	1.44559
504936	227.091	1.33402
504937	227.292	1.22209
504938	227.492	1.1098
504939	227.692	0.997153
504940	227.891	0.884145
504941	228.091	0.77078
504942	228.29	0.657061
504943	228.489	0.542989
504944	228.688	0.428566
504945	228.886	0.313794
504946	229.085	0.198675
504947	229.283	0.0832094
504948	229.481	-0.0325999
504949	229.679	-0.148751
504950	229.876	-0.265244
504951	230.074	-0.382075
504952	230.271	-0.499243
504953	230.468	-0.616746
504954	230.665	-0.734583
504955	230.861	-0.852753
504956	231.058	-0.971252
504957	231.254	-1.09008
504958	231.45	-1.20923
504959	231.646	-1.32871
504960	231.842	-1.44852
504961	232.037	-1.56864
504962	232.232	-1.68909
504963	232.427	-1.80985
504964	232.622	-1.93093
504965	232.817	-2.05232
504966	233.012	-2.17403
504967	233.206	-2.29605
504968	233.4	-2.41838
504969	233.594	-2.54102
504970	233.788	-2.66396
504971	233.982	-2.78721
504972	234.175	-2.91076
504973	234.369	-3.03461
504974	234.562	-3.15877
504975	234.755	-3.28322
504976	234.948	-3.40796
504977	235.14	-3.53301
504978	235.333	-3.65834
504979	235.525	-3.78397
504980	235.717	-3.90988
504981	235.909	-4.03609
504982	236.101	-4.16258
504983	236.293	-4.28935
504984	236.484	-4.41641
504985	236.676	-4.54375
504986	236.867	-4.67137
504987	237.058	-4.79927
504988	237.249	-4.92744
504989	237.44	-5.05589
504990	237.63	-5.18461
504991	237.821	-5.3136
504992	238.011	-5.44287
504993	238.201	-5.5724
504994	238.391	-5.7022
504995	238.581	-5.83226
504996	238.771	-5.96259
504997	238.96	-6.09318
504998	239.15	-6.22402
504999	239.339	-6.35513
505000	239.529	-6.4865
505001	239.718	-6.61812
505002	239.907	-6.74999
505003	240.095	-6.88212
505004	240.284	-7.01449
505005	240.473	-7.14712
505006	240.661	-7.27999
505007	240.85	-7.41311
505008	241.038	-7.54647
505009	241.226	-7.68008
505010	241.414	-7.81392
505011	241.602	-7.94801
505012	241.79	-8.08233
505013	241.977	-8.21689
505014	242.165	-8.35169
505015	242.352	-8.48671
505016	242.539	-8.62197
505017	242.727	-8.75746
505018	242.914	-8.89318
505019	243.101	-9.02912
505020	243.288	-9.16529
505021	243.475	-9.30168
505022	243.661	-9.4383
505023	243.848	-9.57513
505024	244.035	-9.71219
505025	244.221	-9.84946
505026	244.408	-9.98695
505027	244.594	-10.1246
505028	244.78	-10.2626
505029	244.966	-10.4007
505030	245.152	-10.539
505031	245.338	-10.6776
505032	245.524	-10.8163
505033	245.71	-10.9553
505034	245.896	-11.0944
505035	246.081	-11.2338
505036	246.267	-11.3734
505037	246.453	-11.5131
505038	246.638	-11.6531
505039	246.824	-11.7932
505040	247.009	-11.9336
505041	247.194	-12.0741
505042	247.38	-12.2148
505043	247.565	-12.3558
505044	247.75	-12.4969
505045	247.935	-12.6382
505046	248.12	-12.7796
505047	248.305	-12.9213
505048	248.49	-13.0632
505049	248.675	-13.2052
505050	248.86	-13.3474
505051	249.045	-13.4898
505052	249.23	-13.6323
505053	249.415	-13.7751
505054	249.599	-13.918
505055	249.784	-14.0611
505056	249.969	-14.2043
505057	250.154	-14.3477
505058	250.338	-14.4913
505059	250.523	-14.6351
505060	250.708	-14.779
505061	250.892	-14.923
505062	251.077	-15.0673
505063	251.262	-15.2117
505064	251.446	-15.3562
505065	251.631	-15.5009
505066	251.815	-15.6458
505067	252	-15.7908
505068	252.185	-15.936
505069	252.369	-16.0813
505070	252.554	-16.2268
505071	252.739	-16.3724
505072	252.923	-16.5182
505073	253.108	-16.6641
505074	253.293	-16.8101
505075	253.477	-16.9563
505076	253.662	-17.1026
505077	253.847	-17.2491
505078	254.032	-17.3957
505079	254.216	-17.5425
505080	254.401	-17.6893
505081	254.586	-17.8363
505082	254.771	-17.9835
505083	254.956	-18.1308
505084	255.141	-18.2782
505085	255.326	-18.4257
505086	255.511	-18.5733
505087	255.696	-18.7211
505088	255.882	-18.869
505089	256.067	-19.017
505090	256.252	-19.1651
505091	256.438	-19.3134
505092	256.623	-19.4617
505093	256.809	-19.6102
505094	256.994	-19.7588
505095	257.18	-19.9075
505096	257.365	-20.0563
505097	257.551	-20.2052
505098	257.737	-20.3543
505099	257.923	-20.5034
505100	258.109	-20.6526
505101	258.295	-20.802
505102	258.482	-20.9514
505103	258.668	-21.101
505104	258.854	-21.2506
505105	259.041	-21.4003
505106	259.228	-21.5501
505107	259.414	-21.7001
505108	259.601	-21.8501
505109	259.788	-22.0002
505110	259.975	-22.1504
505111	260.162	-22.3006
505112	260.35	-22.451
505113	260.537	-22.6014
505114	260.725	-22.752
505115	260.912	-22.9026
505116	261.1	-23.0533
505117	261.288	-23.204
505118	261.476	-23.3549
505119	261.665	-23.5058
505120	261.853	-23.6568
505121	262.042	-23.8078
505122	262.23	-23.9589
505123	262.419	-24.1101
505124	262.608	-24.2614
505125	262.797	-24.4127
505126	262.987	-24.5641
505127	263.176	-24.7156
505128	263.366	-24.8671
505129	263.556	-25.0186
505130	263.746	-25.1703
505131	263.936	-25.3219
505132	264.126	-25.4737
505133	264.317	-25.6255
505134	264.508	-25.7773
505135	264.699	-25.9292
505136	264.89	-26.0811
505137	265.081	-26.2331
505138	265.273	-26.3851
505139	265.465	-26.5372
505140	265.657	-26.6893
505141	265.849	-26.8414
505142	266.042	-26.9936
505143	266.234	-27.1458
505144	266.427	-27.298
505145	266.62	-27.4503
505146	266.814	-27.6026
505147	267.007	-27.755
505148	267.201	-27.9073
505149	267.395	-28.0597
505150	267.59	-28.2121
505151	267.785	-28.3646
505152	267.979	-28.517
505153	268.175	-28.6695
505154	268.37	-28.822
505155	268.566	-28.9745
505156	268.762	-29.127
505157	268.958	-29.2795
505158	269.154	-29.4321
505159	269.351	-29.5846
505160	269.548	-29.7372
505161	269.746	-29.8897
505162	269.944	-30.0423
505163	270.142	-30.1949
505164	270.34	-30.3474
505165	270.538	-30.5
505166	270.737	-30.6525
505167	270.937	-30.8051
505168	271.136	-30.9576
505169	271.336	-31.1101
505170	271.536	-31.2626
505171	271.737	-31.4151
505172	271.938	-31.5676
505173	272.139	-31.7201
505174	272.341	-31.8725
505175	272.543	-32.025
505176	272.745	-32.1774
505177	272.948	-32.3297
505178	273.151	-32.4821
505179	273.355	-32.6344
505180	273.558	-32.7867
505181	273.763	-32.9389
505182	273.967	-33.0911
505183	274.172	-33.2433
505184	274.378	-33.3954
505185	274.584	-33.5475
505186	274.79	-33.6996
505187	274.997	-33.8516
505188	275.204	-34.0035
505189	275.411	-34.1554
505190	275.619	-34.3073
505191	275.827	-34.4591
505192	276.036	-34.6108
505193	276.245	-34.7625
505194	276.455	-34.9142
505195	276.665	-35.0657
505196	276.876	-35.2172
505197	277.087	-35.3686
505198	277.298	-35.52
505199	277.51	-35.6713
505200	277.723	-35.8225
505201	277.936	-35.9736
505202	278.149	-36.1247
505203	278.363	-36.2757
505204	278.578	-36.4266
505205	278.793	-36.5774
505206	279.008	-36.7281
505207	279.224	-36.8787
505208	279.441	-37.0293
505209	279.658	-37.1797
505210	279.876	-37.3301
505211	280.094	-37.4803
505212	280.313	-37.6305
505213	280.532	-37.7805
505214	280.752	-37.9305
505215	280.972	-38.0803
505216	281.193	-38.23
505217	281.415	-38.3796
505218	281.637	-38.5291
505219	281.86	-38.6784
505220	282.083	-38.8277
505221	282.307	-38.9768
505222	282.531	-39.1258
505223	282.757	-39.2747
505224	282.982	-39.4234
505225	283.209	-39.572
505226	283.436	-39.7204
505227	283.664	-39.8687
505228	283.892	-40.0169
505229	284.121	-40.1649
505230	284.351	-40.3128
505231	284.581	-40.4605
505232	284.812	-40.6081
505233	285.044	-40.7555
505234	285.276	-40.9028
505235	285.509	-41.0499
505236	285.743	-41.1968
505237	285.978	-41.3435
505238	286.213	-41.4901
505239	286.449	-41.6365
505240	286.686	-41.7828
505241	286.923	-41.9288
505242	287.161	-42.0747
505243	287.4	-42.2203
505244	287.64	-42.3658
505245	287.881	-42.5111
505246	288.122	-42.6562
505247	288.364	-42.8011
505248	288.607	-42.9458
505249	288.85	-43.0903
505250	289.095	-43.2345
505251	289.34	-43.3786
505252	289.586	-43.5224
505253	289.833	-43.6661
505254	290.081	-43.8095
505255	290.33	-43.9526
505256	290.579	-44.0956
505257	290.829	-44.2383
505258	291.081	-44.3808
505259	291.333	-44.523
505260	291.586	-44.665
505261	291.84	-44.8067
505262	292.094	-44.9482
505263	292.35	-45.0894
505264	292.607	-45.2304
505265	292.864	-45.3711
505266	293.123	-45.5116
505267	293.382	-45.6517
505268	293.642	-45.7916
505269	293.904	-45.9312
505270	294.166	-46.0706
505271	294.429	-46.2096
505272	294.693	-46.3484
505273	294.959	-46.4868
505274	295.225	-46.625
505275	295.492	-46.7629
505276	295.76	-46.9004
505277	296.03	-47.0377
505278	296.3	-47.1746
505279	296.572	-47.3112
505280	296.844	-47.4475
505281	297.117	-47.5835
505282	297.392	-47.7191
505283	297.668	-47.8544
505284	297.944	-47.9893
505285	298.222	-48.1239
505286	298.501	-48.2582
505287	298.781	-48.3921
505288	299.063	-48.5256
505289	299.345	-48.6588
505290	299.628	-48.7916
505291	299.913	-48.924
505292	300.199	-49.056
505293	300.486	-49.1877
505294	300.774	-49.319
505295	301.063	-49.4499
505296	301.354	-49.5804
505297	301.646	-49.7104
505298	301.939	-49.8401
505299	302.233	-49.9694
505300	302.528	-50.0982
505301	302.825	-50.2266
505302	303.123	-50.3546
505303	303.422	-50.4822
505304	303.722	-50.6093
505305	304.024	-50.736
505306	304.327	-50.8622
505307	304.632	-50.988
505308	304.937	-51.1133
505309	305.244	-51.2381
505310	305.552	-51.3625
505311	305.862	-51.4863
505312	306.173	-51.6097
505313	306.485	-51.7326
505314	306.799	-51.8551
505315	307.114	-51.977
505316	307.43	-52.0984
505317	307.748	-52.2193
505318	308.067	-52.3397
505319	308.387	-52.4595
505320	308.709	-52.5788
505321	309.033	-52.6976
505322	309.357	-52.8158
505323	309.684	-52.9335
505324	310.011	-53.0507
505325	310.34	-53.1672
505326	310.671	-53.2832
505327	311.003	-53.3987
505328	311.336	-53.5135
505329	311.671	-53.6278
505330	312.007	-53.7415
505331	312.345	-53.8545
505332	312.685	-53.967
505333	313.026	-54.0788
505334	313.368	-54.19
505335	313.712	-54.3006
505336	314.057	-54.4106
505337	314.404	-54.5199
505338	314.753	-54.6286
505339	315.103	-54.7366
505340	315.454	-54.844
505341	315.807	-54.9507
505342	316.162	-55.0567
505343	316.518	-55.162
505344	316.876	-55.2666
505345	317.235	-55.3706
505346	317.596	-55.4738
505347	317.959	-55.5764
505348	318.323	-55.6782
505349	318.688	-55.7793
505350	319.055	-55.8796
505351	319.424	-55.9792
505352	319.795	-56.0781
505353	320.167	-56.1762
505354	320.54	-56.2735
505355	320.915	-56.3701
505356	321.292	-56.4659
505357	321.671	-56.5609
505358	322.05	-56.6552
505359	322.432	-56.7486
505360	322.815	-56.8412
505361	323.2	-56.933
505362	323.586	-57.024
505363	323.974	-57.1142
505364	324.364	-57.2035
505365	324.755	-57.292
505366	325.148	-57.3796
505367	325.542	-57.4663
505368	325.938	-57.5522
505369	326.335	-57.6372
505370	326.735	-57.7214
505371	327.135	-57.8046
505372	327.537	-57.887
505373	327.941	-57.9684
505374	328.347	-58.0489
505375	328.754	-58.1286
505376	329.162	-58.2072
505377	329.572	-58.285
505378	329.984	-58.3618
505379	330.397	-58.4376
505380	330.811	-58.5125
505381	331.228	-58.5865
505382	331.645	-58.6594
505383	332.064	-58.7314
505384	332.485	-58.8024
505385	332.907	-58.8724
505386	333.331	-58.9414
505387	333.756	-59.0093
505388	334.182	-59.0763
505389	334.61	-59.1422
505390	335.039	-59.2071
505391	335.47	-59.271
505392	335.902	-59.3338
505393	336.336	-59.3956
505394	336.77	-59.4563
505395	337.207	-59.516
505396	337.644	-59.5746
505397	338.083	-59.6321
505398	338.523	-59.6885
505399	338.965	-59.7438
505400	339.407	-59.798
505401	339.851	-59.8511
505402	340.296	-59.9032
505403	340.743	-59.954
505404	341.19	-60.0038
505405	341.639	-60.0524
505406	342.089	-60.0999
505407	342.54	-60.1463
505408	342.992	-60.1915
505409	343.445	-60.2356
505410	343.899	-60.2785
505411	344.354	-60.3202
505412	344.81	-60.3608
505413	345.267	-60.4002
505414	345.726	-60.4384
505415	346.185	-60.4755
505416	346.645	-60.5113
505417	347.105	-60.546
505418	347.567	-60.5794
505419	348.03	-60.6117
505420	348.493	-60.6428
505421	348.957	-60.6726
505422	349.422	-60.7012
505423	349.887	-60.7286
505424	350.354	-60.7548
505425	350.82	-60.7798
505426	351.288	-60.8035
505427	351.756	-60.826
505428	352.225	-60.8473
505429	352.694	-60.8674
505430	353.164	-60.8862
505431	353.634	-60.9037
505432	354.104	-60.92
505433	354.575	-60.9351
505434	355.047	-60.9489
505435	355.518	-60.9615
505436	355.99	-60.9728
505437	356.463	-60.9828
505438	356.935	-60.9916
505439	357.408	-60.9992
505440	357.881	-61.0055
