Time [h]	NetworkElement(id=101).FluidMassFlux [kg/s]	NetworkElement(id=201).FluidMassFlux [kg/s]	NetworkElement(id=301).FluidMassFlux [kg/s]	NetworkElement(id=101).OutletNodePressure [Pa]	NetworkElement(id=201).OutletNodePressure [Pa]	NetworkElement(id=301).OutletNodePressure [Pa]	NetworkElement(id=101).InletNodeTemperature [C]	NetworkElement(id=201).InletNodeTemperature [C]	NetworkElement(id=301).InletNodeTemperature [C]	NetworkElement(id=101).OutletNodeTemperature [C]	NetworkElement(id=201).OutletNodeTemperature [C]	NetworkElement(id=301).OutletNodeTemperature [C]	NetworkElement(id=101).FluidTemperature [C]	NetworkElement(id=201).FluidTemperature [C]	NetworkElement(id=301).FluidTemperature [C]	NetworkElement(id=101).FlowElementHeatLoss [W]	NetworkElement(id=201).FlowElementHeatLoss [W]	NetworkElement(id=301).FlowElementHeatLoss [W]
0	0.0569877	0.0569877	0.0569877	30.6927	1000	-6.52749e-07	20	20	20	20	20	20	20	20	20	735.307	-0	-500
0.00277778	0.0569877	0.0569877	0.0569877	30.6927	1000	-6.52749e-07	20	20.0029	19.9666	19.9666	20	20.0029	19.9666	20	20.0029	734.081	-0	-500
0.00555556	0.0569877	0.0569877	0.0569877	30.6927	1000	-6.52749e-07	20.0001	20.0058	19.9333	19.9333	20.0001	20.0058	19.9333	20.0001	20.0058	732.855	-0	-500
0.00833333	0.0569877	0.0569877	0.0569877	30.6927	1000	-6.52749e-07	20.0001	20.0085	19.9011	19.9011	20.0001	20.0085	19.9011	20.0001	20.0085	731.671	-0	-500
0.0111111	0.0569877	0.0569877	0.0569877	30.6927	1000	-6.52749e-07	20.0002	20.0112	19.8693	19.8693	20.0002	20.0112	19.8693	20.0002	20.0112	730.501	-0	-500
0.0138889	0.0569877	0.0569877	0.0569877	30.6927	1000	-6.52749e-07	20.0003	20.0139	19.8377	19.8377	20.0003	20.0139	19.8377	20.0003	20.0139	729.341	-0	-500
0.0166667	0.0569877	0.0569877	0.0569877	30.6927	1000	-6.52749e-07	20.0004	20.0165	19.8064	19.8064	20.0004	20.0165	19.8064	20.0004	20.0165	728.19	-0	-500
0.0194444	0.0569877	0.0569877	0.0569877	30.6927	1000	-6.52749e-07	20.0006	20.0191	19.7754	19.7754	20.0006	20.0191	19.7754	20.0006	20.0191	727.05	-0	-500
0.0222222	0.0569877	0.0569877	0.0569877	30.6927	1000	-6.52749e-07	20.0007	20.0217	19.7447	19.7447	20.0007	20.0217	19.7447	20.0007	20.0217	725.919	-0	-500
0.025	0.0569877	0.0569877	0.0569877	30.6927	1000	-6.52749e-07	20.0008	20.0243	19.7142	19.7142	20.0008	20.0243	19.7142	20.0008	20.0243	724.798	-0	-500
0.0277778	0.0569877	0.0569877	0.0569877	30.6927	1000	-6.52749e-07	20.001	20.0268	19.684	19.684	20.001	20.0268	19.684	20.001	20.0268	723.687	-0	-500
0.0305556	0.0569877	0.0569877	0.0569877	30.6927	1000	-6.52749e-07	20.0011	20.0293	19.6541	19.6541	20.0011	20.0293	19.6541	20.0011	20.0293	722.588	-0	-500
0.0333333	0.0569877	0.0569877	0.0569877	30.6927	1000	-6.52749e-07	20.0013	20.0317	19.6247	19.6247	20.0013	20.0317	19.6247	20.0013	20.0317	721.508	-0	-500
0.0361111	0.0569877	0.0569877	0.0569877	30.6927	1000	-6.52749e-07	20.0015	20.034	19.5957	19.5957	20.0015	20.034	19.5957	20.0015	20.034	720.441	-0	-500
0.0388889	0.0569877	0.0569877	0.0569877	30.6927	1000	-6.52749e-07	20.0017	20.0364	19.5669	19.5669	20.0017	20.0364	19.5669	20.0017	20.0364	719.385	-0	-500
0.0416667	0.0569877	0.0569877	0.0569877	30.6927	1000	-6.52749e-07	20.0019	20.0387	19.5386	19.5386	20.0019	20.0387	19.5386	20.0019	20.0387	718.342	-0	-500
0.0444444	0.0569877	0.0569877	0.0569877	30.6927	1000	-6.52749e-07	20.0021	20.0409	19.5105	19.5105	20.0021	20.0409	19.5105	20.0021	20.0409	717.311	-0	-500
0.0472222	0.0569877	0.0569877	0.0569877	30.6927	1000	-6.52749e-07	20.0023	20.0431	19.4828	19.4828	20.0023	20.0431	19.4828	20.0023	20.0431	716.292	-0	-500
0.05	0.0569877	0.0569877	0.0569877	30.6927	1000	-6.52749e-07	20.0026	20.0453	19.4554	19.4554	20.0026	20.0453	19.4554	20.0026	20.0453	715.286	-0	-500
0.0527778	0.0569877	0.0569877	0.0569877	30.6927	1000	-6.52749e-07	20.0028	20.0474	19.4284	19.4284	20.0028	20.0474	19.4284	20.0028	20.0474	714.291	-0	-500
0.0555556	0.0569877	0.0569877	0.0569877	30.6927	1000	-6.52749e-07	20.0031	20.0495	19.4017	19.4017	20.0031	20.0495	19.4017	20.0031	20.0495	713.309	-0	-500
0.0583333	0.0569877	0.0569877	0.0569877	30.6927	1000	-6.52749e-07	20.0033	20.0516	19.3753	19.3753	20.0033	20.0516	19.3753	20.0033	20.0516	712.338	-0	-500
0.0611111	0.0569877	0.0569877	0.0569877	30.6927	1000	-6.52749e-07	20.0036	20.0536	19.3492	19.3492	20.0036	20.0536	19.3492	20.0036	20.0536	711.379	-0	-500
0.0638889	0.0569877	0.0569877	0.0569877	30.6927	1000	-6.52749e-07	20.0039	20.0556	19.3234	19.3234	20.0039	20.0556	19.3234	20.0039	20.0556	710.433	-0	-500
0.0666667	0.0569877	0.0569877	0.0569877	30.6927	1000	-6.52749e-07	20.0042	20.0575	19.298	19.298	20.0042	20.0575	19.298	20.0042	20.0575	709.498	-0	-500
0.0694444	0.0569877	0.0569877	0.0569877	30.6927	1000	-6.52749e-07	20.0045	20.0594	19.2729	19.2729	20.0045	20.0594	19.2729	20.0045	20.0594	708.576	-0	-500
0.0722222	0.0569877	0.0569877	0.0569877	30.6927	1000	-6.52749e-07	20.0048	20.0613	19.2482	19.2482	20.0048	20.0613	19.2482	20.0048	20.0613	707.666	-0	-500
0.075	0.0569877	0.0569877	0.0569877	30.6927	1000	-6.52749e-07	20.0051	20.0631	19.2237	19.2237	20.0051	20.0631	19.2237	20.0051	20.0631	706.768	-0	-500
0.0777778	0.0569877	0.0569877	0.0569877	30.6927	1000	-6.52749e-07	20.0055	20.0649	19.1996	19.1996	20.0055	20.0649	19.1996	20.0055	20.0649	705.882	-0	-500
0.0805556	0.0569877	0.0569877	0.0569877	30.6927	1000	-6.52749e-07	20.0058	20.0666	19.1755	19.1755	20.0058	20.0666	19.1755	20.0058	20.0666	704.993	-0	-500
0.0833333	0.0569877	0.0569877	0.0569877	30.6927	1000	-6.52749e-07	20.0061	20.0684	19.1515	19.1515	20.0061	20.0684	19.1515	20.0061	20.0684	704.111	-0	-500
0.0861111	0.0569877	0.0569877	0.0569877	30.6927	1000	-6.52749e-07	20.0064	20.0702	19.1278	19.1278	20.0064	20.0702	19.1278	20.0064	20.0702	703.24	-0	-500
0.0888889	0.0569877	0.0569877	0.0569877	30.6927	1000	-6.52749e-07	20.0067	20.0719	19.1044	19.1044	20.0067	20.0719	19.1044	20.0067	20.0719	702.38	-0	-500
0.0916667	0.0569877	0.0569877	0.0569877	30.6927	1000	-6.52749e-07	20.0071	20.0735	19.0813	19.0813	20.0071	20.0735	19.0813	20.0071	20.0735	701.53	-0	-500
0.0944444	0.0569877	0.0569877	0.0569877	30.6927	1000	-6.52749e-07	20.0074	20.0752	19.0585	19.0585	20.0074	20.0752	19.0585	20.0074	20.0752	700.691	-0	-500
0.0972222	0.0569877	0.0569877	0.0569877	30.6927	1000	-6.52749e-07	20.0078	20.0768	19.0359	19.0359	20.0078	20.0768	19.0359	20.0078	20.0768	699.862	-0	-500
0.1	0.0569877	0.0569877	0.0569877	30.6927	1000	-6.52749e-07	20.0081	20.0783	19.0137	19.0137	20.0081	20.0783	19.0137	20.0081	20.0783	699.045	-0	-500
0.102778	0.0569877	0.0569877	0.0569877	30.6927	1000	-6.52749e-07	20.0085	20.0799	18.9917	18.9917	20.0085	20.0799	18.9917	20.0085	20.0799	698.238	-0	-500
0.105556	0.0569877	0.0569877	0.0569877	30.6927	1000	-6.52749e-07	20.0089	20.0814	18.9701	18.9701	20.0089	20.0814	18.9701	20.0089	20.0814	697.441	-0	-500
0.108333	0.0569877	0.0569877	0.0569877	30.6927	1000	-6.52749e-07	20.0092	20.0828	18.9487	18.9487	20.0092	20.0828	18.9487	20.0092	20.0828	696.655	-0	-500
0.111111	0.0569877	0.0569877	0.0569877	30.6927	1000	-6.52749e-07	20.0096	20.0843	18.9276	18.9276	20.0096	20.0843	18.9276	20.0096	20.0843	695.88	-0	-500
0.113889	0.0569877	0.0569877	0.0569877	30.6927	1000	-6.52749e-07	20.01	20.0857	18.9068	18.9068	20.01	20.0857	18.9068	20.01	20.0857	695.116	-0	-500
0.116667	0.0569877	0.0569877	0.0569877	30.6927	1000	-6.52749e-07	20.0104	20.087	18.8863	18.8863	20.0104	20.087	18.8863	20.0104	20.087	694.362	-0	-500
0.119444	0.0569877	0.0569877	0.0569877	30.6927	1000	-6.52749e-07	20.0108	20.0884	18.8661	18.8661	20.0108	20.0884	18.8661	20.0108	20.0884	693.619	-0	-500
0.122222	0.0569877	0.0569877	0.0569877	30.6927	1000	-6.52749e-07	20.0112	20.0896	18.8462	18.8462	20.0112	20.0896	18.8462	20.0112	20.0896	692.886	-0	-500
0.125	0.0569877	0.0569877	0.0569877	30.6927	1000	-6.52749e-07	20.0117	20.0909	18.8265	18.8265	20.0117	20.0909	18.8265	20.0117	20.0909	692.164	-0	-500
0.127778	0.0569877	0.0569877	0.0569877	30.6927	1000	-6.52749e-07	20.0121	20.0921	18.8072	18.8072	20.0121	20.0921	18.8072	20.0121	20.0921	691.453	-0	-500
0.130556	0.0569877	0.0569877	0.0569877	30.6927	1000	-6.52749e-07	20.0125	20.0933	18.7881	18.7881	20.0125	20.0933	18.7881	20.0125	20.0933	690.752	-0	-500
0.133333	0.0569877	0.0569877	0.0569877	30.6927	1000	-6.52749e-07	20.013	20.0945	18.7694	18.7694	20.013	20.0945	18.7694	20.013	20.0945	690.062	-0	-500
0.136111	0.0569877	0.0569877	0.0569877	30.6927	1000	-6.52749e-07	20.0134	20.0956	18.7509	18.7509	20.0134	20.0956	18.7509	20.0134	20.0956	689.383	-0	-500
0.138889	0.0569877	0.0569877	0.0569877	30.6927	1000	-6.52749e-07	20.0139	20.0967	18.7327	18.7327	20.0139	20.0967	18.7327	20.0139	20.0967	688.714	-0	-500
0.141667	0.0569877	0.0569877	0.0569877	30.6927	1000	-6.52749e-07	20.0144	20.0978	18.7148	18.7148	20.0144	20.0978	18.7148	20.0144	20.0978	688.056	-0	-500
0.144444	0.0569877	0.0569877	0.0569877	30.6927	1000	-6.52749e-07	20.0148	20.0988	18.6972	18.6972	20.0148	20.0988	18.6972	20.0148	20.0988	687.409	-0	-500
0.147222	0.0569877	0.0569877	0.0569877	30.6927	1000	-6.52749e-07	20.0153	20.0998	18.6799	18.6799	20.0153	20.0998	18.6799	20.0153	20.0998	686.772	-0	-500
0.15	0.0569877	0.0569877	0.0569877	30.6927	1000	-6.52749e-07	20.0158	20.1008	18.6625	18.6625	20.0158	20.1008	18.6625	20.0158	20.1008	686.134	-0	-500
0.152778	0.0569877	0.0569877	0.0569877	30.6927	1000	-6.52749e-07	20.0162	20.1017	18.6454	18.6454	20.0162	20.1017	18.6454	20.0162	20.1017	685.504	-0	-500
0.155556	0.0569877	0.0569877	0.0569877	30.6927	1000	-6.52749e-07	20.0167	20.1027	18.6285	18.6285	20.0167	20.1027	18.6285	20.0167	20.1027	684.883	-0	-500
0.158333	0.0569877	0.0569877	0.0569877	30.6927	1000	-6.52749e-07	20.0172	20.1036	18.6118	18.6118	20.0172	20.1036	18.6118	20.0172	20.1036	684.271	-0	-500
0.161111	0.0569877	0.0569877	0.0569877	30.6927	1000	-6.52749e-07	20.0177	20.1045	18.5954	18.5954	20.0177	20.1045	18.5954	20.0177	20.1045	683.667	-0	-500
0.163889	0.0569877	0.0569877	0.0569877	30.6927	1000	-6.52749e-07	20.0181	20.1053	18.5792	18.5792	20.0181	20.1053	18.5792	20.0181	20.1053	683.072	-0	-500
0.166667	0.0569877	0.0569877	0.0569877	30.6927	1000	-6.52749e-07	20.0186	20.1062	18.5633	18.5633	20.0186	20.1062	18.5633	20.0186	20.1062	682.486	-0	-500
0.169444	0.0569877	0.0569877	0.0569877	30.6927	1000	-6.52749e-07	20.0191	20.107	18.5476	18.5476	20.0191	20.107	18.5476	20.0191	20.107	681.908	-0	-500
0.172222	0.0569877	0.0569877	0.0569877	30.6927	1000	-6.52749e-07	20.0196	20.1077	18.5321	18.5321	20.0196	20.1077	18.5321	20.0196	20.1077	681.339	-0	-500
0.175	0.0569877	0.0569877	0.0569877	30.6927	1000	-6.52749e-07	20.0201	20.1085	18.5169	18.5169	20.0201	20.1085	18.5169	20.0201	20.1085	680.779	-0	-500
0.177778	0.0569877	0.0569877	0.0569877	30.6927	1000	-6.52749e-07	20.0206	20.1092	18.5019	18.5019	20.0206	20.1092	18.5019	20.0206	20.1092	680.227	-0	-500
0.180556	0.0569877	0.0569877	0.0569877	30.6927	1000	-6.52749e-07	20.0211	20.1099	18.4871	18.4871	20.0211	20.1099	18.4871	20.0211	20.1099	679.685	-0	-500
0.183333	0.0569877	0.0569877	0.0569877	30.6927	1000	-6.52749e-07	20.0216	20.1106	18.4724	18.4724	20.0216	20.1106	18.4724	20.0216	20.1106	679.143	-0	-500
0.186111	0.0569877	0.0569877	0.0569877	30.6927	1000	-6.52749e-07	20.0221	20.1113	18.4578	18.4578	20.0221	20.1113	18.4578	20.0221	20.1113	678.608	-0	-500
0.188889	0.0569877	0.0569877	0.0569877	30.6927	1000	-6.52749e-07	20.0226	20.1119	18.4434	18.4434	20.0226	20.1119	18.4434	20.0226	20.1119	678.079	-0	-500
0.191667	0.0569877	0.0569877	0.0569877	30.6927	1000	-6.52749e-07	20.0231	20.1126	18.4293	18.4293	20.0231	20.1126	18.4293	20.0231	20.1126	677.558	-0	-500
0.194444	0.0569877	0.0569877	0.0569877	30.6927	1000	-6.52749e-07	20.0236	20.1132	18.4153	18.4153	20.0236	20.1132	18.4153	20.0236	20.1132	677.045	-0	-500
0.197222	0.0569877	0.0569877	0.0569877	30.6927	1000	-6.52749e-07	20.0241	20.1137	18.4015	18.4015	20.0241	20.1137	18.4015	20.0241	20.1137	676.538	-0	-500
0.2	0.0569877	0.0569877	0.0569877	30.6927	1000	-6.52749e-07	20.0246	20.1143	18.388	18.388	20.0246	20.1143	18.388	20.0246	20.1143	676.039	-0	-500
0.202778	0.0569877	0.0569877	0.0569877	30.6927	1000	-6.52749e-07	20.0251	20.1148	18.3746	18.3746	20.0251	20.1148	18.3746	20.0251	20.1148	675.548	-0	-500
0.205556	0.0569877	0.0569877	0.0569877	30.6927	1000	-6.52749e-07	20.0256	20.1154	18.3614	18.3614	20.0256	20.1154	18.3614	20.0256	20.1154	675.063	-0	-500
0.208333	0.0569877	0.0569877	0.0569877	30.6927	1000	-6.52749e-07	20.0261	20.1159	18.3484	18.3484	20.0261	20.1159	18.3484	20.0261	20.1159	674.586	-0	-500
0.211111	0.0569877	0.0569877	0.0569877	30.6927	1000	-6.52749e-07	20.0266	20.1163	18.3357	18.3357	20.0266	20.1163	18.3357	20.0266	20.1163	674.116	-0	-500
0.213889	0.0569877	0.0569877	0.0569877	30.6927	1000	-6.52749e-07	20.0271	20.1168	18.3231	18.3231	20.0271	20.1168	18.3231	20.0271	20.1168	673.654	-0	-500
0.216667	0.0569877	0.0569877	0.0569877	30.6927	1000	-6.52749e-07	20.0276	20.1172	18.3106	18.3106	20.0276	20.1172	18.3106	20.0276	20.1172	673.194	-0	-500
0.219444	0.0569877	0.0569877	0.0569877	30.6927	1000	-6.52749e-07	20.0281	20.1176	18.2982	18.2982	20.0281	20.1176	18.2982	20.0281	20.1176	672.738	-0	-500
0.222222	0.0569877	0.0569877	0.0569877	30.6927	1000	-6.52749e-07	20.0287	20.1181	18.2859	18.2859	20.0287	20.1181	18.2859	20.0287	20.1181	672.288	-0	-500
0.225	0.0569877	0.0569877	0.0569877	30.6927	1000	-6.52749e-07	20.0292	20.1184	18.2739	18.2739	20.0292	20.1184	18.2739	20.0292	20.1184	671.845	-0	-500
0.227778	0.0569877	0.0569877	0.0569877	30.6927	1000	-6.52749e-07	20.0297	20.1188	18.262	18.262	20.0297	20.1188	18.262	20.0297	20.1188	671.408	-0	-500
0.230556	0.0569877	0.0569877	0.0569877	30.6927	1000	-6.52749e-07	20.0302	20.1192	18.2503	18.2503	20.0302	20.1192	18.2503	20.0302	20.1192	670.977	-0	-500
0.233333	0.0569877	0.0569877	0.0569877	30.6927	1000	-6.52749e-07	20.0307	20.1195	18.2387	18.2387	20.0307	20.1195	18.2387	20.0307	20.1195	670.552	-0	-500
0.236111	0.0569877	0.0569877	0.0569877	30.6927	1000	-6.52749e-07	20.0312	20.1198	18.2273	18.2273	20.0312	20.1198	18.2273	20.0312	20.1198	670.133	-0	-500
0.238889	0.0569877	0.0569877	0.0569877	30.6927	1000	-6.52749e-07	20.0317	20.1201	18.2161	18.2161	20.0317	20.1201	18.2161	20.0317	20.1201	669.721	-0	-500
0.241667	0.0569877	0.0569877	0.0569877	30.6927	1000	-6.52749e-07	20.0322	20.1204	18.2051	18.2051	20.0322	20.1204	18.2051	20.0322	20.1204	669.315	-0	-500
0.244444	0.0569877	0.0569877	0.0569877	30.6927	1000	-6.52749e-07	20.0327	20.1207	18.1942	18.1942	20.0327	20.1207	18.1942	20.0327	20.1207	668.915	-0	-500
0.247222	0.0569877	0.0569877	0.0569877	30.6927	1000	-6.52749e-07	20.0332	20.1209	18.1835	18.1835	20.0332	20.1209	18.1835	20.0332	20.1209	668.521	-0	-500
0.25	0.0569877	0.0569877	0.0569877	30.6927	1000	-6.52749e-07	20.0337	20.1211	18.1728	18.1728	20.0337	20.1211	18.1728	20.0337	20.1211	668.13	-0	-500
0.252778	0.0569877	0.0569877	0.0569877	30.6927	1000	-6.52749e-07	20.0341	20.1214	18.1623	18.1623	20.0341	20.1214	18.1623	20.0341	20.1214	667.742	-0	-500
0.255556	0.0569877	0.0569877	0.0569877	30.6927	1000	-6.52749e-07	20.0346	20.1216	18.1519	18.1519	20.0346	20.1216	18.1519	20.0346	20.1216	667.36	-0	-500
0.258333	0.0569877	0.0569877	0.0569877	30.6927	1000	-6.52749e-07	20.0351	20.1218	18.1416	18.1416	20.0351	20.1218	18.1416	20.0351	20.1218	666.982	-0	-500
0.261111	0.0569877	0.0569877	0.0569877	30.6927	1000	-6.52749e-07	20.0356	20.122	18.1315	18.1315	20.0356	20.122	18.1315	20.0356	20.122	666.61	-0	-500
0.263889	0.0569877	0.0569877	0.0569877	30.6927	1000	-6.52749e-07	20.0361	20.1221	18.1215	18.1215	20.0361	20.1221	18.1215	20.0361	20.1221	666.244	-0	-500
0.266667	0.0569877	0.0569877	0.0569877	30.6927	1000	-6.52749e-07	20.0366	20.1223	18.1117	18.1117	20.0366	20.1223	18.1117	20.0366	20.1223	665.882	-0	-500
0.269444	0.0569877	0.0569877	0.0569877	30.6927	1000	-6.52749e-07	20.0371	20.1224	18.102	18.102	20.0371	20.1224	18.102	20.0371	20.1224	665.526	-0	-500
0.272222	0.0569877	0.0569877	0.0569877	30.6927	1000	-6.52749e-07	20.0376	20.1225	18.0925	18.0925	20.0376	20.1225	18.0925	20.0376	20.1225	665.175	-0	-500
0.275	0.0569877	0.0569877	0.0569877	30.6927	1000	-6.52749e-07	20.038	20.1226	18.0831	18.0831	20.038	20.1226	18.0831	20.038	20.1226	664.829	-0	-500
0.277778	0.0569877	0.0569877	0.0569877	30.6927	1000	-6.52749e-07	20.0385	20.1227	18.0738	18.0738	20.0385	20.1227	18.0738	20.0385	20.1227	664.489	-0	-500
0.280556	0.0569877	0.0569877	0.0569877	30.6927	1000	-6.52749e-07	20.039	20.1228	18.0647	18.0647	20.039	20.1228	18.0647	20.039	20.1228	664.154	-0	-500
0.283333	0.0569877	0.0569877	0.0569877	30.6927	1000	-6.52749e-07	20.0395	20.1228	18.0556	18.0556	20.0395	20.1228	18.0556	20.0395	20.1228	663.822	-0	-500
0.286111	0.0569877	0.0569877	0.0569877	30.6927	1000	-6.52749e-07	20.0399	20.1229	18.0467	18.0467	20.0399	20.1229	18.0467	20.0399	20.1229	663.492	-0	-500
0.288889	0.0569877	0.0569877	0.0569877	30.6927	1000	-6.52749e-07	20.0404	20.1229	18.0378	18.0378	20.0404	20.1229	18.0378	20.0404	20.1229	663.167	-0	-500
0.291667	0.0569877	0.0569877	0.0569877	30.6927	1000	-6.52749e-07	20.0409	20.1229	18.0291	18.0291	20.0409	20.1229	18.0291	20.0409	20.1229	662.846	-0	-500
0.294444	0.0569877	0.0569877	0.0569877	30.6927	1000	-6.52749e-07	20.0413	20.123	18.0205	18.0205	20.0413	20.123	18.0205	20.0413	20.123	662.529	-0	-500
0.297222	0.0569877	0.0569877	0.0569877	30.6927	1000	-6.52749e-07	20.0418	20.123	18.012	18.012	20.0418	20.123	18.012	20.0418	20.123	662.217	-0	-500
0.3	0.0569877	0.0569877	0.0569877	30.6927	1000	-6.52749e-07	20.0422	20.1229	18.0036	18.0036	20.0422	20.1229	18.0036	20.0422	20.1229	661.91	-0	-500
0.302778	0.0569877	0.0569877	0.0569877	30.6927	1000	-6.52749e-07	20.0427	20.1229	17.9954	17.9954	20.0427	20.1229	17.9954	20.0427	20.1229	661.607	-0	-500
0.305556	0.0569877	0.0569877	0.0569877	30.6927	1000	-6.52749e-07	20.0432	20.1229	17.9873	17.9873	20.0432	20.1229	17.9873	20.0432	20.1229	661.309	-0	-500
0.308333	0.0569877	0.0569877	0.0569877	30.6927	1000	-6.52749e-07	20.0436	20.1228	17.9793	17.9793	20.0436	20.1228	17.9793	20.0436	20.1228	661.015	-0	-500
0.311111	0.0569877	0.0569877	0.0569877	30.6927	1000	-6.52749e-07	20.0441	20.1228	17.9714	17.9714	20.0441	20.1228	17.9714	20.0441	20.1228	660.726	-0	-500
0.313889	0.0569877	0.0569877	0.0569877	30.6927	1000	-6.52749e-07	20.0445	20.1227	17.9637	17.9637	20.0445	20.1227	17.9637	20.0445	20.1227	660.441	-0	-500
0.316667	0.0569877	0.0569877	0.0569877	30.6927	1000	-6.52749e-07	20.0449	20.1226	17.956	17.956	20.0449	20.1226	17.956	20.0449	20.1226	660.159	-0	-500
0.319444	0.0569877	0.0569877	0.0569877	30.6927	1000	-6.52749e-07	20.0454	20.1225	17.9484	17.9484	20.0454	20.1225	17.9484	20.0454	20.1225	659.879	-0	-500
0.322222	0.0569877	0.0569877	0.0569877	30.6927	1000	-6.52749e-07	20.0458	20.1224	17.9409	17.9409	20.0458	20.1224	17.9409	20.0458	20.1224	659.602	-0	-500
0.325	0.0569877	0.0569877	0.0569877	30.6927	1000	-6.52749e-07	20.0463	20.1223	17.9335	17.9335	20.0463	20.1223	17.9335	20.0463	20.1223	659.329	-0	-500
0.327778	0.0569877	0.0569877	0.0569877	30.6927	1000	-6.52749e-07	20.0467	20.1222	17.9261	17.9261	20.0467	20.1222	17.9261	20.0467	20.1222	659.06	-0	-500
0.330556	0.0569877	0.0569877	0.0569877	30.6927	1000	-6.52749e-07	20.0471	20.1221	17.9189	17.9189	20.0471	20.1221	17.9189	20.0471	20.1221	658.795	-0	-500
0.333333	0.0569877	0.0569877	0.0569877	30.6927	1000	-6.52749e-07	20.0475	20.1219	17.9118	17.9118	20.0475	20.1219	17.9118	20.0475	20.1219	658.533	-0	-500
0.336111	0.0569877	0.0569877	0.0569877	30.6927	1000	-6.52749e-07	20.048	20.1218	17.9048	17.9048	20.048	20.1218	17.9048	20.048	20.1218	658.275	-0	-500
0.338889	0.0569877	0.0569877	0.0569877	30.6927	1000	-6.52749e-07	20.0484	20.1216	17.8978	17.8978	20.0484	20.1216	17.8978	20.0484	20.1216	658.02	-0	-500
0.341667	0.0569877	0.0569877	0.0569877	30.6927	1000	-6.52749e-07	20.0488	20.1214	17.891	17.891	20.0488	20.1214	17.891	20.0488	20.1214	657.769	-0	-500
0.344444	0.0569877	0.0569877	0.0569877	30.6927	1000	-6.52749e-07	20.0492	20.1212	17.8843	17.8843	20.0492	20.1212	17.8843	20.0492	20.1212	657.522	-0	-500
0.347222	0.0569877	0.0569877	0.0569877	30.6927	1000	-6.52749e-07	20.0496	20.121	17.8776	17.8776	20.0496	20.121	17.8776	20.0496	20.121	657.278	-0	-500
0.35	0.0569877	0.0569877	0.0569877	30.6927	1000	-6.52749e-07	20.05	20.1208	17.8711	17.8711	20.05	20.1208	17.8711	20.05	20.1208	657.037	-0	-500
0.352778	0.0569877	0.0569877	0.0569877	30.6927	1000	-6.52749e-07	20.0504	20.1206	17.8647	17.8647	20.0504	20.1206	17.8647	20.0504	20.1206	656.8	-0	-500
0.355556	0.0569877	0.0569877	0.0569877	30.6927	1000	-6.52749e-07	20.0508	20.1204	17.8583	17.8583	20.0508	20.1204	17.8583	20.0508	20.1204	656.566	-0	-500
0.358333	0.0569877	0.0569877	0.0569877	30.6927	1000	-6.52749e-07	20.0512	20.1202	17.852	17.852	20.0512	20.1202	17.852	20.0512	20.1202	656.336	-0	-500
0.361111	0.0569877	0.0569877	0.0569877	30.6927	1000	-6.52749e-07	20.0516	20.1199	17.8459	17.8459	20.0516	20.1199	17.8459	20.0516	20.1199	656.109	-0	-500
0.363889	0.0569877	0.0569877	0.0569877	30.6927	1000	-6.52749e-07	20.052	20.1197	17.8398	17.8398	20.052	20.1197	17.8398	20.052	20.1197	655.886	-0	-500
0.366667	0.0569877	0.0569877	0.0569877	30.6927	1000	-6.52749e-07	20.0524	20.1194	17.8338	17.8338	20.0524	20.1194	17.8338	20.0524	20.1194	655.666	-0	-500
0.369444	0.0569877	0.0569877	0.0569877	30.6927	1000	-6.52749e-07	20.0527	20.1192	17.8279	17.8279	20.0527	20.1192	17.8279	20.0527	20.1192	655.449	-0	-500
0.372222	0.0569877	0.0569877	0.0569877	30.6927	1000	-6.52749e-07	20.0531	20.1189	17.8221	17.8221	20.0531	20.1189	17.8221	20.0531	20.1189	655.235	-0	-500
0.375	0.0569877	0.0569877	0.0569877	30.6927	1000	-6.52749e-07	20.0535	20.1186	17.8163	17.8163	20.0535	20.1186	17.8163	20.0535	20.1186	655.023	-0	-500
0.377778	0.0569877	0.0569877	0.0569877	30.6927	1000	-6.52749e-07	20.0539	20.1183	17.8106	17.8106	20.0539	20.1183	17.8106	20.0539	20.1183	654.814	-0	-500
0.380556	0.0569877	0.0569877	0.0569877	30.6927	1000	-6.52749e-07	20.0542	20.118	17.805	17.805	20.0542	20.118	17.805	20.0542	20.118	654.607	-0	-500
0.383333	0.0569877	0.0569877	0.0569877	30.6927	1000	-6.52749e-07	20.0546	20.1177	17.7995	17.7995	20.0546	20.1177	17.7995	20.0546	20.1177	654.404	-0	-500
0.386111	0.0569877	0.0569877	0.0569877	30.6927	1000	-6.52749e-07	20.0549	20.1174	17.794	17.794	20.0549	20.1174	17.794	20.0549	20.1174	654.203	-0	-500
0.388889	0.0569877	0.0569877	0.0569877	30.6927	1000	-6.52749e-07	20.0553	20.1171	17.7886	17.7886	20.0553	20.1171	17.7886	20.0553	20.1171	654.005	-0	-500
0.391667	0.0569877	0.0569877	0.0569877	30.6927	1000	-6.52749e-07	20.0557	20.1168	17.7833	17.7833	20.0557	20.1168	17.7833	20.0557	20.1168	653.81	-0	-500
0.394444	0.0569877	0.0569877	0.0569877	30.6927	1000	-6.52749e-07	20.056	20.1164	17.7781	17.7781	20.056	20.1164	17.7781	20.056	20.1164	653.618	-0	-500
0.397222	0.0569877	0.0569877	0.0569877	30.6927	1000	-6.52749e-07	20.0563	20.1161	17.7729	17.7729	20.0563	20.1161	17.7729	20.0563	20.1161	653.428	-0	-500
0.4	0.0569877	0.0569877	0.0569877	30.6927	1000	-6.52749e-07	20.0567	20.1157	17.7679	17.7679	20.0567	20.1157	17.7679	20.0567	20.1157	653.241	-0	-500
0.402778	0.0569877	0.0569877	0.0569877	30.6927	1000	-6.52749e-07	20.057	20.1154	17.7628	17.7628	20.057	20.1154	17.7628	20.057	20.1154	653.057	-0	-500
0.405556	0.0569877	0.0569877	0.0569877	30.6927	1000	-6.52749e-07	20.0573	20.115	17.7579	17.7579	20.0573	20.115	17.7579	20.0573	20.115	652.875	-0	-500
0.408333	0.0569877	0.0569877	0.0569877	30.6927	1000	-6.52749e-07	20.0577	20.1146	17.753	17.753	20.0577	20.1146	17.753	20.0577	20.1146	652.696	-0	-500
0.411111	0.0569877	0.0569877	0.0569877	30.6927	1000	-6.52749e-07	20.058	20.1143	17.7482	17.7482	20.058	20.1143	17.7482	20.058	20.1143	652.519	-0	-500
0.413889	0.0569877	0.0569877	0.0569877	30.6927	1000	-6.52749e-07	20.0583	20.1139	17.7435	17.7435	20.0583	20.1139	17.7435	20.0583	20.1139	652.345	-0	-500
0.416667	0.0569877	0.0569877	0.0569877	30.6927	1000	-6.52749e-07	20.0586	20.1135	17.7388	17.7388	20.0586	20.1135	17.7388	20.0586	20.1135	652.173	-0	-500
0.419444	0.0569877	0.0569877	0.0569877	30.6927	1000	-6.52749e-07	20.0589	20.1131	17.7342	17.7342	20.0589	20.1131	17.7342	20.0589	20.1131	652.004	-0	-500
0.422222	0.0569877	0.0569877	0.0569877	30.6927	1000	-6.52749e-07	20.0593	20.1127	17.7296	17.7296	20.0593	20.1127	17.7296	20.0593	20.1127	651.836	-0	-500
0.425	0.0569877	0.0569877	0.0569877	30.6927	1000	-6.52749e-07	20.0596	20.1123	17.7252	17.7252	20.0596	20.1123	17.7252	20.0596	20.1123	651.672	-0	-500
0.427778	0.0569877	0.0569877	0.0569877	30.6927	1000	-6.52749e-07	20.0599	20.1119	17.7207	17.7207	20.0599	20.1119	17.7207	20.0599	20.1119	651.509	-0	-500
0.430556	0.0569877	0.0569877	0.0569877	30.6927	1000	-6.52749e-07	20.0602	20.1114	17.7164	17.7164	20.0602	20.1114	17.7164	20.0602	20.1114	651.349	-0	-500
0.433333	0.0569877	0.0569877	0.0569877	30.6927	1000	-6.52749e-07	20.0604	20.111	17.7121	17.7121	20.0604	20.111	17.7121	20.0604	20.111	651.191	-0	-500
0.436111	0.0569877	0.0569877	0.0569877	30.6927	1000	-6.52749e-07	20.0607	20.1106	17.7079	17.7079	20.0607	20.1106	17.7079	20.0607	20.1106	651.035	-0	-500
0.438889	0.0569877	0.0569877	0.0569877	30.6927	1000	-6.52749e-07	20.061	20.1101	17.7037	17.7037	20.061	20.1101	17.7037	20.061	20.1101	650.882	-0	-500
0.441667	0.0569877	0.0569877	0.0569877	30.6927	1000	-6.52749e-07	20.0613	20.1097	17.6996	17.6996	20.0613	20.1097	17.6996	20.0613	20.1097	650.73	-0	-500
0.444444	0.0569877	0.0569877	0.0569877	30.6927	1000	-6.52749e-07	20.0616	20.1093	17.6955	17.6955	20.0616	20.1093	17.6955	20.0616	20.1093	650.581	-0	-500
0.447222	0.0569877	0.0569877	0.0569877	30.6927	1000	-6.52749e-07	20.0618	20.1088	17.6915	17.6915	20.0618	20.1088	17.6915	20.0618	20.1088	650.434	-0	-500
0.45	0.0569877	0.0569877	0.0569877	30.6927	1000	-6.52749e-07	20.0621	20.1083	17.6875	17.6875	20.0621	20.1083	17.6875	20.0621	20.1083	650.288	-0	-500
0.452778	0.0569877	0.0569877	0.0569877	30.6927	1000	-6.52749e-07	20.0624	20.1079	17.6836	17.6836	20.0624	20.1079	17.6836	20.0624	20.1079	650.145	-0	-500
0.455556	0.0569877	0.0569877	0.0569877	30.6927	1000	-6.52749e-07	20.0626	20.1074	17.6798	17.6798	20.0626	20.1074	17.6798	20.0626	20.1074	650.004	-0	-500
0.458333	0.0569877	0.0569877	0.0569877	30.6927	1000	-6.52749e-07	20.0629	20.1069	17.676	17.676	20.0629	20.1069	17.676	20.0629	20.1069	649.864	-0	-500
0.461111	0.0569877	0.0569877	0.0569877	30.6927	1000	-6.52749e-07	20.0631	20.1065	17.6723	17.6723	20.0631	20.1065	17.6723	20.0631	20.1065	649.727	-0	-500
0.463889	0.0569877	0.0569877	0.0569877	30.6927	1000	-6.52749e-07	20.0634	20.106	17.6686	17.6686	20.0634	20.106	17.6686	20.0634	20.106	649.591	-0	-500
0.466667	0.0569877	0.0569877	0.0569877	30.6927	1000	-6.52749e-07	20.0636	20.1055	17.6649	17.6649	20.0636	20.1055	17.6649	20.0636	20.1055	649.457	-0	-500
0.469444	0.0569877	0.0569877	0.0569877	30.6927	1000	-6.52749e-07	20.0639	20.105	17.6613	17.6613	20.0639	20.105	17.6613	20.0639	20.105	649.325	-0	-500
0.472222	0.0569877	0.0569877	0.0569877	30.6927	1000	-6.52749e-07	20.0641	20.1045	17.6578	17.6578	20.0641	20.1045	17.6578	20.0641	20.1045	649.194	-0	-500
0.475	0.0569877	0.0569877	0.0569877	30.6927	1000	-6.52749e-07	20.0643	20.104	17.6543	17.6543	20.0643	20.104	17.6543	20.0643	20.104	649.065	-0	-500
0.477778	0.0569877	0.0569877	0.0569877	30.6927	1000	-6.52749e-07	20.0646	20.1035	17.6508	17.6508	20.0646	20.1035	17.6508	20.0646	20.1035	648.938	-0	-500
0.480556	0.0569877	0.0569877	0.0569877	30.6927	1000	-6.52749e-07	20.0648	20.103	17.6474	17.6474	20.0648	20.103	17.6474	20.0648	20.103	648.812	-0	-500
0.483333	0.0569877	0.0569877	0.0569877	30.6927	1000	-6.52749e-07	20.065	20.1025	17.644	17.644	20.065	20.1025	17.644	20.065	20.1025	648.689	-0	-500
0.486111	0.0569877	0.0569877	0.0569877	30.6927	1000	-6.52749e-07	20.0652	20.1019	17.6408	17.6408	20.0652	20.1019	17.6408	20.0652	20.1019	648.569	-0	-500
0.488889	0.0569877	0.0569877	0.0569877	30.6927	1000	-6.52749e-07	20.0654	20.1014	17.6376	17.6376	20.0654	20.1014	17.6376	20.0654	20.1014	648.452	-0	-500
0.491667	0.0569877	0.0569877	0.0569877	30.6927	1000	-6.52749e-07	20.0656	20.1009	17.6344	17.6344	20.0656	20.1009	17.6344	20.0656	20.1009	648.336	-0	-500
0.494444	0.0569877	0.0569877	0.0569877	30.6927	1000	-6.52749e-07	20.0658	20.1003	17.6313	17.6313	20.0658	20.1003	17.6313	20.0658	20.1003	648.221	-0	-500
0.497222	0.0569877	0.0569877	0.0569877	30.6927	1000	-6.52749e-07	20.066	20.0998	17.6283	17.6283	20.066	20.0998	17.6283	20.066	20.0998	648.109	-0	-500
0.5	0.0569877	0.0569877	0.0569877	30.6927	1000	-6.52749e-07	20.0662	20.0993	17.6252	17.6252	20.0662	20.0993	17.6252	20.0662	20.0993	647.998	-0	-500
0.583333	0.0569877	0.0569877	0.0569877	30.6927	1000	-6.52749e-07	20.0702	20.0815	17.5516	17.5516	20.0702	20.0815	17.5516	20.0702	20.0815	645.289	-0	-500
0.666667	0.0569877	0.0569877	0.0569877	30.6927	1000	-6.52749e-07	20.0706	20.0617	17.503	17.503	20.0706	20.0617	17.503	20.0706	20.0617	643.502	-0	-500
0.75	0.0569877	0.0569877	0.0569877	30.6927	1000	-6.52749e-07	20.0677	20.0413	17.4685	17.4685	20.0677	20.0413	17.4685	20.0677	20.0413	642.235	-0	-500
0.833333	0.0569877	0.0569877	0.0569877	30.6927	1000	-6.52749e-07	20.062	20.0206	17.443	17.443	20.062	20.0206	17.443	20.062	20.0206	641.297	-0	-500
0.916667	0.0569877	0.0569877	0.0569877	30.6927	1000	-6.52749e-07	20.0538	19.9998	17.4233	17.4233	20.0538	19.9998	17.4233	20.0538	19.9998	640.574	-0	-500
1	0.0569877	0.0569877	0.0569877	30.6927	1000	-6.52749e-07	20.0436	19.9793	17.4065	17.4065	20.0436	19.9793	17.4065	20.0436	19.9793	639.955	-0	-500
1.08333	0.0569877	0.0569877	0.0569877	30.6927	1000	-6.52749e-07	20.0318	19.9591	17.3916	17.3916	20.0318	19.9591	17.3916	20.0318	19.9591	639.407	-0	-500
1.16667	0.0569877	0.0569877	0.0569877	30.6927	1000	-6.52749e-07	20.0187	19.9391	17.3778	17.3778	20.0187	19.9391	17.3778	20.0187	19.9391	638.901	-0	-500
1.25	0.0569877	0.0569877	0.0569877	30.6927	1000	-6.52749e-07	20.0046	19.9195	17.3645	17.3645	20.0046	19.9195	17.3645	20.0046	19.9195	638.414	-0	-500
1.33333	0.0569877	0.0569877	0.0569877	30.6927	1000	-6.52749e-07	19.9895	19.9001	17.3515	17.3515	19.9895	19.9001	17.3515	19.9895	19.9001	637.933	-0	-500
1.41667	0.0569877	0.0569877	0.0569877	30.6927	1000	-6.52749e-07	19.9738	19.8809	17.3384	17.3384	19.9738	19.8809	17.3384	19.9738	19.8809	637.452	-0	-500
1.5	0.0569877	0.0569877	0.0569877	30.6927	1000	-6.52749e-07	19.9576	19.862	17.325	17.325	19.9576	19.862	17.325	19.9576	19.862	636.96	-0	-500
1.58333	0.0569877	0.0569877	0.0569877	30.6927	1000	-6.52749e-07	19.941	19.8434	17.3114	17.3114	19.941	19.8434	17.3114	19.941	19.8434	636.46	-0	-500
1.66667	0.0569877	0.0569877	0.0569877	30.6927	1000	-6.52749e-07	19.924	19.8249	17.2974	17.2974	19.924	19.8249	17.2974	19.924	19.8249	635.946	-0	-500
1.75	0.0569877	0.0569877	0.0569877	30.6927	1000	-6.52749e-07	19.9068	19.8066	17.2834	17.2834	19.9068	19.8066	17.2834	19.9068	19.8066	635.431	-0	-500
1.83333	0.0569877	0.0569877	0.0569877	30.6927	1000	-6.52749e-07	19.8893	19.7885	17.2692	17.2692	19.8893	19.7885	17.2692	19.8893	19.7885	634.907	-0	-500
1.91667	0.0569877	0.0569877	0.0569877	30.6927	1000	-6.52749e-07	19.8718	19.7706	17.2546	17.2546	19.8718	19.7706	17.2546	19.8718	19.7706	634.372	-0	-500
2	0.0569877	0.0569877	0.0569877	30.6927	1000	-6.52749e-07	19.8543	19.7528	17.2396	17.2396	19.8543	19.7528	17.2396	19.8543	19.7528	633.821	-0	-500
2.08333	0.0569877	0.0569877	0.0569877	30.6927	1000	-6.52749e-07	19.8366	19.7351	17.2248	17.2248	19.8366	19.7351	17.2248	19.8366	19.7351	633.274	-0	-500
2.16667	0.0569877	0.0569877	0.0569877	30.6927	1000	-6.52749e-07	19.8189	19.7175	17.2098	17.2098	19.8189	19.7175	17.2098	19.8189	19.7175	632.726	-0	-500
2.25	0.0569877	0.0569877	0.0569877	30.6927	1000	-6.52749e-07	19.8013	19.7001	17.1948	17.1948	19.8013	19.7001	17.1948	19.8013	19.7001	632.171	-0	-500
2.33333	0.0569877	0.0569877	0.0569877	30.6927	1000	-6.52749e-07	19.7838	19.6827	17.1795	17.1795	19.7838	19.6827	17.1795	19.7838	19.6827	631.608	-0	-500
2.41667	0.0569877	0.0569877	0.0569877	30.6927	1000	-6.52749e-07	19.7664	19.6654	17.1641	17.1641	19.7664	19.6654	17.1641	19.7664	19.6654	631.042	-0	-500
2.5	0.0569877	0.0569877	0.0569877	30.6927	1000	-6.52749e-07	19.749	19.6482	17.1488	17.1488	19.749	19.6482	17.1488	19.749	19.6482	630.481	-0	-500
2.58333	0.0569877	0.0569877	0.0569877	30.6927	1000	-6.52749e-07	19.7316	19.6311	17.1335	17.1335	19.7316	19.6311	17.1335	19.7316	19.6311	629.92	-0	-500
2.66667	0.0569877	0.0569877	0.0569877	30.6927	1000	-6.52749e-07	19.7144	19.6141	17.1183	17.1183	19.7144	19.6141	17.1183	19.7144	19.6141	629.36	-0	-500
2.75	0.0569877	0.0569877	0.0569877	30.6927	1000	-6.52749e-07	19.6972	19.5971	17.1031	17.1031	19.6972	19.5971	17.1031	19.6972	19.5971	628.801	-0	-500
2.83333	0.0569877	0.0569877	0.0569877	30.6927	1000	-6.52749e-07	19.6801	19.5803	17.088	17.088	19.6801	19.5803	17.088	19.6801	19.5803	628.245	-0	-500
2.91667	0.0569877	0.0569877	0.0569877	30.6927	1000	-6.52749e-07	19.6631	19.5634	17.0729	17.0729	19.6631	19.5634	17.0729	19.6631	19.5634	627.691	-0	-500
3	0.0569877	0.0569877	0.0569877	30.6927	1000	-6.52749e-07	19.6461	19.5467	17.0579	17.0579	19.6461	19.5467	17.0579	19.6461	19.5467	627.141	-0	-500
3.08333	0.0569877	0.0569877	0.0569877	30.6927	1000	-6.52749e-07	19.6292	19.53	17.0431	17.0431	19.6292	19.53	17.0431	19.6292	19.53	626.595	-0	-500
3.16667	0.0569877	0.0569877	0.0569877	30.6927	1000	-6.52749e-07	19.6124	19.5134	17.0283	17.0283	19.6124	19.5134	17.0283	19.6124	19.5134	626.051	-0	-500
3.25	0.0569877	0.0569877	0.0569877	30.6927	1000	-6.52749e-07	19.5957	19.4969	17.0136	17.0136	19.5957	19.4969	17.0136	19.5957	19.4969	625.509	-0	-500
3.33333	0.0569877	0.0569877	0.0569877	30.6927	1000	-6.52749e-07	19.5791	19.4804	16.9989	16.9989	19.5791	19.4804	16.9989	19.5791	19.4804	624.971	-0	-500
3.41667	0.0569877	0.0569877	0.0569877	30.6927	1000	-6.52749e-07	19.5627	19.464	16.9843	16.9843	19.5627	19.464	16.9843	19.5627	19.464	624.435	-0	-500
3.5	0.0569877	0.0569877	0.0569877	30.6927	1000	-6.52749e-07	19.5462	19.4477	16.9698	16.9698	19.5462	19.4477	16.9698	19.5462	19.4477	623.902	-0	-500
3.58333	0.0569877	0.0569877	0.0569877	30.6927	1000	-6.52749e-07	19.5298	19.4314	16.9554	16.9554	19.5298	19.4314	16.9554	19.5298	19.4314	623.372	-0	-500
3.66667	0.0569877	0.0569877	0.0569877	30.6927	1000	-6.52749e-07	19.5134	19.4152	16.9411	16.9411	19.5134	19.4152	16.9411	19.5134	19.4152	622.845	-0	-500
3.75	0.0569877	0.0569877	0.0569877	30.6927	1000	-6.52749e-07	19.4969	19.3992	16.9268	16.9268	19.4969	19.3992	16.9268	19.4969	19.3992	622.32	-0	-500
3.83333	0.0569877	0.0569877	0.0569877	30.6927	1000	-6.52749e-07	19.4804	19.3832	16.9126	16.9126	19.4804	19.3832	16.9126	19.4804	19.3832	621.798	-0	-500
3.91667	0.0569877	0.0569877	0.0569877	30.6927	1000	-6.52749e-07	19.4643	19.3672	16.8985	16.8985	19.4643	19.3672	16.8985	19.4643	19.3672	621.279	-0	-500
4	0.0569877	0.0569877	0.0569877	30.6927	1000	-6.52749e-07	19.4482	19.3512	16.8844	16.8844	19.4482	19.3512	16.8844	19.4482	19.3512	620.761	-0	-500
4.08333	0.0569877	0.0569877	0.0569877	30.6927	1000	-6.52749e-07	19.4322	19.3354	16.8704	16.8704	19.4322	19.3354	16.8704	19.4322	19.3354	620.246	-0	-500
4.16667	0.0569877	0.0569877	0.0569877	30.6927	1000	-6.52749e-07	19.4163	19.3196	16.8564	16.8564	19.4163	19.3196	16.8564	19.4163	19.3196	619.732	-0	-500
4.25	0.0569877	0.0569877	0.0569877	30.6927	1000	-6.52749e-07	19.4003	19.3039	16.8425	16.8425	19.4003	19.3039	16.8425	19.4003	19.3039	619.22	-0	-500
4.33333	0.0569877	0.0569877	0.0569877	30.6927	1000	-6.52749e-07	19.3844	19.2884	16.8286	16.8286	19.3844	19.2884	16.8286	19.3844	19.2884	618.709	-0	-500
4.41667	0.0569877	0.0569877	0.0569877	30.6927	1000	-6.52749e-07	19.3683	19.2729	16.8147	16.8147	19.3683	19.2729	16.8147	19.3683	19.2729	618.198	-0	-500
4.5	0.0569877	0.0569877	0.0569877	30.6927	1000	-6.52749e-07	19.3522	19.2575	16.8008	16.8008	19.3522	19.2575	16.8008	19.3522	19.2575	617.688	-0	-500
4.58333	0.0569877	0.0569877	0.0569877	30.6927	1000	-6.52749e-07	19.3363	19.2421	16.787	16.787	19.3363	19.2421	16.787	19.3363	19.2421	617.181	-0	-500
4.66667	0.0569877	0.0569877	0.0569877	30.6927	1000	-6.52749e-07	19.3206	19.2268	16.7733	16.7733	19.3206	19.2268	16.7733	19.3206	19.2268	616.677	-0	-500
4.75	0.0569877	0.0569877	0.0569877	30.6927	1000	-6.52749e-07	19.3049	19.2116	16.7596	16.7596	19.3049	19.2116	16.7596	19.3049	19.2116	616.174	-0	-500
4.83333	0.0569877	0.0569877	0.0569877	30.6927	1000	-6.52749e-07	19.2893	19.1964	16.746	16.746	19.2893	19.1964	16.746	19.2893	19.1964	615.672	-0	-500
4.91667	0.0569877	0.0569877	0.0569877	30.6927	1000	-6.52749e-07	19.2737	19.1813	16.7324	16.7324	19.2737	19.1813	16.7324	19.2737	19.1813	615.172	-0	-500
5	0.0569877	0.0569877	0.0569877	30.6927	1000	-6.52749e-07	19.2581	19.1663	16.7188	16.7188	19.2581	19.1663	16.7188	19.2581	19.1663	614.672	-0	-500
5.08333	0.0569877	0.0569877	0.0569877	30.6927	1000	-6.52749e-07	19.2426	19.1513	16.7052	16.7052	19.2426	19.1513	16.7052	19.2426	19.1513	614.173	-0	-500
5.16667	0.0569877	0.0569877	0.0569877	30.6927	1000	-6.52749e-07	19.2271	19.1365	16.6917	16.6917	19.2271	19.1365	16.6917	19.2271	19.1365	613.675	-0	-500
5.25	0.0569877	0.0569877	0.0569877	30.6927	1000	-6.52749e-07	19.2117	19.1217	16.6782	16.6782	19.2117	19.1217	16.6782	19.2117	19.1217	613.179	-0	-500
5.33333	0.0569877	0.0569877	0.0569877	30.6927	1000	-6.52749e-07	19.1965	19.1069	16.6648	16.6648	19.1965	19.1069	16.6648	19.1965	19.1069	612.689	-0	-500
5.41667	0.0569877	0.0569877	0.0569877	30.6927	1000	-6.52749e-07	19.1813	19.0922	16.6515	16.6515	19.1813	19.0922	16.6515	19.1813	19.0922	612.2	-0	-500
5.5	0.0569877	0.0569877	0.0569877	30.6927	1000	-6.52749e-07	19.1661	19.0776	16.6383	16.6383	19.1661	19.0776	16.6383	19.1661	19.0776	611.713	-0	-500
5.58333	0.0569877	0.0569877	0.0569877	30.6927	1000	-6.52749e-07	19.1511	19.063	16.6251	16.6251	19.1511	19.063	16.6251	19.1511	19.063	611.228	-0	-500
5.66667	0.0569877	0.0569877	0.0569877	30.6927	1000	-6.52749e-07	19.1361	19.0485	16.612	16.612	19.1361	19.0485	16.612	19.1361	19.0485	610.745	-0	-500
5.75	0.0569877	0.0569877	0.0569877	30.6927	1000	-6.52749e-07	19.1212	19.034	16.5989	16.5989	19.1212	19.034	16.5989	19.1212	19.034	610.264	-0	-500
5.83333	0.0569877	0.0569877	0.0569877	30.6927	1000	-6.52749e-07	19.1063	19.0197	16.5859	16.5859	19.1063	19.0197	16.5859	19.1063	19.0197	609.785	-0	-500
5.91667	0.0569877	0.0569877	0.0569877	30.6927	1000	-6.52749e-07	19.0915	19.0053	16.5729	16.5729	19.0915	19.0053	16.5729	19.0915	19.0053	609.308	-0	-500
6	0.0569877	0.0569877	0.0569877	30.6927	1000	-6.52749e-07	19.0768	18.9911	16.56	16.56	19.0768	18.9911	16.56	19.0768	18.9911	608.832	-0	-500
6.08333	0.0569877	0.0569877	0.0569877	30.6927	1000	-6.52749e-07	19.0622	18.9769	16.5471	16.5471	19.0622	18.9769	16.5471	19.0622	18.9769	608.359	-0	-500
6.16667	0.0569877	0.0569877	0.0569877	30.6927	1000	-6.52749e-07	19.0476	18.9627	16.5342	16.5342	19.0476	18.9627	16.5342	19.0476	18.9627	607.887	-0	-500
6.25	0.0569877	0.0569877	0.0569877	30.6927	1000	-6.52749e-07	19.0331	18.9486	16.5215	16.5215	19.0331	18.9486	16.5215	19.0331	18.9486	607.417	-0	-500
6.33333	0.0569877	0.0569877	0.0569877	30.6927	1000	-6.52749e-07	19.0186	18.9346	16.5088	16.5088	19.0186	18.9346	16.5088	19.0186	18.9346	606.951	-0	-500
6.41667	0.0569877	0.0569877	0.0569877	30.6927	1000	-6.52749e-07	19.0043	18.9206	16.4961	16.4961	19.0043	18.9206	16.4961	19.0043	18.9206	606.486	-0	-500
6.5	0.0569877	0.0569877	0.0569877	30.6927	1000	-6.52749e-07	18.9899	18.9067	16.4836	16.4836	18.9899	18.9067	16.4836	18.9899	18.9067	606.024	-0	-500
6.58333	0.0569877	0.0569877	0.0569877	30.6927	1000	-6.52749e-07	18.9757	18.8929	16.4711	16.4711	18.9757	18.8929	16.4711	18.9757	18.8929	605.564	-0	-500
6.66667	0.0569877	0.0569877	0.0569877	30.6927	1000	-6.52749e-07	18.9615	18.8791	16.4586	16.4586	18.9615	18.8791	16.4586	18.9615	18.8791	605.106	-0	-500
6.75	0.0569877	0.0569877	0.0569877	30.6927	1000	-6.52749e-07	18.9474	18.8654	16.4462	16.4462	18.9474	18.8654	16.4462	18.9474	18.8654	604.651	-0	-500
6.83333	0.0569877	0.0569877	0.0569877	30.6927	1000	-6.52749e-07	18.9333	18.8517	16.4339	16.4339	18.9333	18.8517	16.4339	18.9333	18.8517	604.197	-0	-500
6.91667	0.0569877	0.0569877	0.0569877	30.6927	1000	-6.52749e-07	18.9194	18.8381	16.4216	16.4216	18.9194	18.8381	16.4216	18.9194	18.8381	603.746	-0	-500
7	0.0569877	0.0569877	0.0569877	30.6927	1000	-6.52749e-07	18.9054	18.8245	16.4094	16.4094	18.9054	18.8245	16.4094	18.9054	18.8245	603.297	-0	-500
7.08333	0.0569877	0.0569877	0.0569877	30.6927	1000	-6.52749e-07	18.8916	18.811	16.3972	16.3972	18.8916	18.811	16.3972	18.8916	18.811	602.85	-0	-500
7.16667	0.0569877	0.0569877	0.0569877	30.6927	1000	-6.52749e-07	18.8778	18.7976	16.3851	16.3851	18.8778	18.7976	16.3851	18.8778	18.7976	602.405	-0	-500
7.25	0.0569877	0.0569877	0.0569877	30.6927	1000	-6.52749e-07	18.8641	18.7842	16.3731	16.3731	18.8641	18.7842	16.3731	18.8641	18.7842	601.963	-0	-500
7.33333	0.0569877	0.0569877	0.0569877	30.6927	1000	-6.52749e-07	18.8504	18.7708	16.3611	16.3611	18.8504	18.7708	16.3611	18.8504	18.7708	601.521	-0	-500
7.41667	0.0569877	0.0569877	0.0569877	30.6927	1000	-6.52749e-07	18.8368	18.7576	16.3492	16.3492	18.8368	18.7576	16.3492	18.8368	18.7576	601.082	-0	-500
7.5	0.0569877	0.0569877	0.0569877	30.6927	1000	-6.52749e-07	18.8232	18.7444	16.3373	16.3373	18.8232	18.7444	16.3373	18.8232	18.7444	600.645	-0	-500
7.58333	0.0569877	0.0569877	0.0569877	30.6927	1000	-6.52749e-07	18.8097	18.7312	16.3254	16.3254	18.8097	18.7312	16.3254	18.8097	18.7312	600.21	-0	-500
7.66667	0.0569877	0.0569877	0.0569877	30.6927	1000	-6.52749e-07	18.7963	18.7181	16.3137	16.3137	18.7963	18.7181	16.3137	18.7963	18.7181	599.777	-0	-500
7.75	0.0569877	0.0569877	0.0569877	30.6927	1000	-6.52749e-07	18.7829	18.705	16.3019	16.3019	18.7829	18.705	16.3019	18.7829	18.705	599.346	-0	-500
7.83333	0.0569877	0.0569877	0.0569877	30.6927	1000	-6.52749e-07	18.7696	18.6921	16.2903	16.2903	18.7696	18.6921	16.2903	18.7696	18.6921	598.917	-0	-500
7.91667	0.0569877	0.0569877	0.0569877	30.6927	1000	-6.52749e-07	18.7563	18.6791	16.2786	16.2786	18.7563	18.6791	16.2786	18.7563	18.6791	598.489	-0	-500
8	0.0569877	0.0569877	0.0569877	30.6927	1000	-6.52749e-07	18.7431	18.6662	16.2671	16.2671	18.7431	18.6662	16.2671	18.7431	18.6662	598.064	-0	-500
8.08333	0.0569877	0.0569877	0.0569877	30.6927	1000	-6.52749e-07	18.73	18.6534	16.2556	16.2556	18.73	18.6534	16.2556	18.73	18.6534	597.641	-0	-500
8.16667	0.0569877	0.0569877	0.0569877	30.6927	1000	-6.52749e-07	18.7169	18.6407	16.2441	16.2441	18.7169	18.6407	16.2441	18.7169	18.6407	597.22	-0	-500
8.25	0.0569877	0.0569877	0.0569877	30.6927	1000	-6.52749e-07	18.7039	18.6279	16.2327	16.2327	18.7039	18.6279	16.2327	18.7039	18.6279	596.8	-0	-500
8.33333	0.0569877	0.0569877	0.0569877	30.6927	1000	-6.52749e-07	18.6909	18.6153	16.2213	16.2213	18.6909	18.6153	16.2213	18.6909	18.6153	596.382	-0	-500
8.41667	0.0569877	0.0569877	0.0569877	30.6927	1000	-6.52749e-07	18.678	18.6027	16.21	16.21	18.678	18.6027	16.21	18.678	18.6027	595.966	-0	-500
8.5	0.0569877	0.0569877	0.0569877	30.6927	1000	-6.52749e-07	18.6651	18.5901	16.1987	16.1987	18.6651	18.5901	16.1987	18.6651	18.5901	595.552	-0	-500
8.58333	0.0569877	0.0569877	0.0569877	30.6927	1000	-6.52749e-07	18.6523	18.5776	16.1875	16.1875	18.6523	18.5776	16.1875	18.6523	18.5776	595.14	-0	-500
8.66667	0.0569877	0.0569877	0.0569877	30.6927	1000	-6.52749e-07	18.6395	18.5652	16.1764	16.1764	18.6395	18.5652	16.1764	18.6395	18.5652	594.729	-0	-500
8.75	0.0569877	0.0569877	0.0569877	30.6927	1000	-6.52749e-07	18.6268	18.5528	16.1652	16.1652	18.6268	18.5528	16.1652	18.6268	18.5528	594.32	-0	-500
8.83333	0.0569877	0.0569877	0.0569877	30.6927	1000	-6.52749e-07	18.6142	18.5405	16.1542	16.1542	18.6142	18.5405	16.1542	18.6142	18.5405	593.913	-0	-500
8.91667	0.0569877	0.0569877	0.0569877	30.6927	1000	-6.52749e-07	18.6016	18.5282	16.1431	16.1431	18.6016	18.5282	16.1431	18.6016	18.5282	593.507	-0	-500
9	0.0569877	0.0569877	0.0569877	30.6927	1000	-6.52749e-07	18.5891	18.516	16.1321	16.1321	18.5891	18.516	16.1321	18.5891	18.516	593.104	-0	-500
9.08333	0.0569877	0.0569877	0.0569877	30.6927	1000	-6.52749e-07	18.5766	18.5038	16.1212	16.1212	18.5766	18.5038	16.1212	18.5766	18.5038	592.701	-0	-500
9.16667	0.0569877	0.0569877	0.0569877	30.6927	1000	-6.52749e-07	18.5641	18.4917	16.1103	16.1103	18.5641	18.4917	16.1103	18.5641	18.4917	592.301	-0	-500
9.25	0.0569877	0.0569877	0.0569877	30.6927	1000	-6.52749e-07	18.5518	18.4796	16.0995	16.0995	18.5518	18.4796	16.0995	18.5518	18.4796	591.902	-0	-500
9.33333	0.0569877	0.0569877	0.0569877	30.6927	1000	-6.52749e-07	18.5394	18.4676	16.0887	16.0887	18.5394	18.4676	16.0887	18.5394	18.4676	591.505	-0	-500
9.41667	0.0569877	0.0569877	0.0569877	30.6927	1000	-6.52749e-07	18.5272	18.4556	16.0779	16.0779	18.5272	18.4556	16.0779	18.5272	18.4556	591.11	-0	-500
9.5	0.0569877	0.0569877	0.0569877	30.6927	1000	-6.52749e-07	18.5149	18.4437	16.0672	16.0672	18.5149	18.4437	16.0672	18.5149	18.4437	590.717	-0	-500
9.58333	0.0569877	0.0569877	0.0569877	30.6927	1000	-6.52749e-07	18.5028	18.4319	16.0566	16.0566	18.5028	18.4319	16.0566	18.5028	18.4319	590.325	-0	-500
9.66667	0.0569877	0.0569877	0.0569877	30.6927	1000	-6.52749e-07	18.4907	18.42	16.046	16.046	18.4907	18.42	16.046	18.4907	18.42	589.935	-0	-500
9.75	0.0569877	0.0569877	0.0569877	30.6927	1000	-6.52749e-07	18.4786	18.4083	16.0354	16.0354	18.4786	18.4083	16.0354	18.4786	18.4083	589.546	-0	-500
9.83333	0.0569877	0.0569877	0.0569877	30.6927	1000	-6.52749e-07	18.4666	18.3966	16.0249	16.0249	18.4666	18.3966	16.0249	18.4666	18.3966	589.16	-0	-500
9.91667	0.0569877	0.0569877	0.0569877	30.6927	1000	-6.52749e-07	18.4546	18.3849	16.0144	16.0144	18.4546	18.3849	16.0144	18.4546	18.3849	588.774	-0	-500
10	0.0569877	0.0569877	0.0569877	30.6927	1000	-6.52749e-07	18.4427	18.3733	16.004	16.004	18.4427	18.3733	16.004	18.4427	18.3733	588.391	-0	-500
10.0833	0.0569877	0.0569877	0.0569877	30.6927	1000	-6.52749e-07	18.4309	18.3618	15.9936	15.9936	18.4309	18.3618	15.9936	18.4309	18.3618	588.009	-0	-500
10.1667	0.0569877	0.0569877	0.0569877	30.6927	1000	-6.52749e-07	18.419	18.3503	15.9832	15.9832	18.419	18.3503	15.9832	18.419	18.3503	587.628	-0	-500
10.25	0.0569877	0.0569877	0.0569877	30.6927	1000	-6.52749e-07	18.4073	18.3388	15.9729	15.9729	18.4073	18.3388	15.9729	18.4073	18.3388	587.249	-0	-500
10.3333	0.0569877	0.0569877	0.0569877	30.6927	1000	-6.52749e-07	18.3956	18.3274	15.9627	15.9627	18.3956	18.3274	15.9627	18.3956	18.3274	586.872	-0	-500
10.4167	0.0569877	0.0569877	0.0569877	30.6927	1000	-6.52749e-07	18.3839	18.316	15.9524	15.9524	18.3839	18.316	15.9524	18.3839	18.316	586.497	-0	-500
10.5	0.0569877	0.0569877	0.0569877	30.6927	1000	-6.52749e-07	18.3723	18.3047	15.9423	15.9423	18.3723	18.3047	15.9423	18.3723	18.3047	586.123	-0	-500
10.5833	0.0569877	0.0569877	0.0569877	30.6927	1000	-6.52749e-07	18.3608	18.2935	15.9322	15.9322	18.3608	18.2935	15.9322	18.3608	18.2935	585.751	-0	-500
10.6667	0.0569877	0.0569877	0.0569877	30.6927	1000	-6.52749e-07	18.3493	18.2823	15.9221	15.9221	18.3493	18.2823	15.9221	18.3493	18.2823	585.381	-0	-500
10.75	0.0569877	0.0569877	0.0569877	30.6927	1000	-6.52749e-07	18.3378	18.2711	15.912	15.912	18.3378	18.2711	15.912	18.3378	18.2711	585.012	-0	-500
10.8333	0.0569877	0.0569877	0.0569877	30.6927	1000	-6.52749e-07	18.3264	18.26	15.902	15.902	18.3264	18.26	15.902	18.3264	18.26	584.644	-0	-500
10.9167	0.0569877	0.0569877	0.0569877	30.6927	1000	-6.52749e-07	18.3151	18.2489	15.8921	15.8921	18.3151	18.2489	15.8921	18.3151	18.2489	584.278	-0	-500
11	0.0569877	0.0569877	0.0569877	30.6927	1000	-6.52749e-07	18.3038	18.2379	15.8822	15.8822	18.3038	18.2379	15.8822	18.3038	18.2379	583.914	-0	-500
11.0833	0.0569877	0.0569877	0.0569877	30.6927	1000	-6.52749e-07	18.2925	18.2269	15.8723	15.8723	18.2925	18.2269	15.8723	18.2925	18.2269	583.552	-0	-500
11.1667	0.0569877	0.0569877	0.0569877	30.6927	1000	-6.52749e-07	18.2813	18.216	15.8625	15.8625	18.2813	18.216	15.8625	18.2813	18.216	583.19	-0	-500
11.25	0.0569877	0.0569877	0.0569877	30.6927	1000	-6.52749e-07	18.2701	18.2051	15.8527	15.8527	18.2701	18.2051	15.8527	18.2701	18.2051	582.831	-0	-500
11.3333	0.0569877	0.0569877	0.0569877	30.6927	1000	-6.52749e-07	18.259	18.1943	15.843	15.843	18.259	18.1943	15.843	18.259	18.1943	582.473	-0	-500
11.4167	0.0569877	0.0569877	0.0569877	30.6927	1000	-6.52749e-07	18.248	18.1835	15.8333	15.8333	18.248	18.1835	15.8333	18.248	18.1835	582.117	-0	-500
11.5	0.0569877	0.0569877	0.0569877	30.6927	1000	-6.52749e-07	18.237	18.1728	15.8236	15.8236	18.237	18.1728	15.8236	18.237	18.1728	581.762	-0	-500
11.5833	0.0569877	0.0569877	0.0569877	30.6927	1000	-6.52749e-07	18.226	18.1621	15.814	15.814	18.226	18.1621	15.814	18.226	18.1621	581.408	-0	-500
11.6667	0.0569877	0.0569877	0.0569877	30.6927	1000	-6.52749e-07	18.2151	18.1515	15.8045	15.8045	18.2151	18.1515	15.8045	18.2151	18.1515	581.057	-0	-500
11.75	0.0569877	0.0569877	0.0569877	30.6927	1000	-6.52749e-07	18.2042	18.1409	15.7949	15.7949	18.2042	18.1409	15.7949	18.2042	18.1409	580.706	-0	-500
11.8333	0.0569877	0.0569877	0.0569877	30.6927	1000	-6.52749e-07	18.1934	18.1303	15.7855	15.7855	18.1934	18.1303	15.7855	18.1934	18.1303	580.358	-0	-500
11.9167	0.0569877	0.0569877	0.0569877	30.6927	1000	-6.52749e-07	18.1826	18.1198	15.776	15.776	18.1826	18.1198	15.776	18.1826	18.1198	580.01	-0	-500
12	0.0569877	0.0569877	0.0569877	30.6927	1000	-6.52749e-07	18.1719	18.1093	15.7666	15.7666	18.1719	18.1093	15.7666	18.1719	18.1093	579.665	-0	-500
12.0833	0.0569877	0.0569877	0.0569877	30.6927	1000	-6.52749e-07	18.1612	18.0989	15.7572	15.7572	18.1612	18.0989	15.7572	18.1612	18.0989	579.321	-0	-500
12.1667	0.0569877	0.0569877	0.0569877	30.6927	1000	-6.52749e-07	18.1505	18.0886	15.7479	15.7479	18.1505	18.0886	15.7479	18.1505	18.0886	578.978	-0	-500
12.25	0.0569877	0.0569877	0.0569877	30.6927	1000	-6.52749e-07	18.1399	18.0782	15.7386	15.7386	18.1399	18.0782	15.7386	18.1399	18.0782	578.637	-0	-500
12.3333	0.0569877	0.0569877	0.0569877	30.6927	1000	-6.52749e-07	18.1294	18.068	15.7294	15.7294	18.1294	18.068	15.7294	18.1294	18.068	578.297	-0	-500
12.4167	0.0569877	0.0569877	0.0569877	30.6927	1000	-6.52749e-07	18.1189	18.0577	15.7202	15.7202	18.1189	18.0577	15.7202	18.1189	18.0577	577.959	-0	-500
12.5	0.0569877	0.0569877	0.0569877	30.6927	1000	-6.52749e-07	18.1084	18.0475	15.711	15.711	18.1084	18.0475	15.711	18.1084	18.0475	577.622	-0	-500
12.5833	0.0569877	0.0569877	0.0569877	30.6927	1000	-6.52749e-07	18.098	18.0374	15.7019	15.7019	18.098	18.0374	15.7019	18.098	18.0374	577.286	-0	-500
12.6667	0.0569877	0.0569877	0.0569877	30.6927	1000	-6.52749e-07	18.0877	18.0273	15.6928	15.6928	18.0877	18.0273	15.6928	18.0877	18.0273	576.952	-0	-500
12.75	0.0569877	0.0569877	0.0569877	30.6927	1000	-6.52749e-07	18.0773	18.0172	15.6838	15.6838	18.0773	18.0172	15.6838	18.0773	18.0172	576.62	-0	-500
12.8333	0.0569877	0.0569877	0.0569877	30.6927	1000	-6.52749e-07	18.0671	18.0072	15.6748	15.6748	18.0671	18.0072	15.6748	18.0671	18.0072	576.289	-0	-500
12.9167	0.0569877	0.0569877	0.0569877	30.6927	1000	-6.52749e-07	18.0568	17.9972	15.6658	15.6658	18.0568	17.9972	15.6658	18.0568	17.9972	575.959	-0	-500
13	0.0569877	0.0569877	0.0569877	30.6927	1000	-6.52749e-07	18.0466	17.9873	15.6569	15.6569	18.0466	17.9873	15.6569	18.0466	17.9873	575.631	-0	-500
13.0833	0.0569877	0.0569877	0.0569877	30.6927	1000	-6.52749e-07	18.0365	17.9774	15.648	15.648	18.0365	17.9774	15.648	18.0365	17.9774	575.304	-0	-500
13.1667	0.0569877	0.0569877	0.0569877	30.6927	1000	-6.52749e-07	18.0264	17.9676	15.6392	15.6392	18.0264	17.9676	15.6392	18.0264	17.9676	574.979	-0	-500
13.25	0.0569877	0.0569877	0.0569877	30.6927	1000	-6.52749e-07	18.0163	17.9578	15.6304	15.6304	18.0163	17.9578	15.6304	18.0163	17.9578	574.655	-0	-500
13.3333	0.0569877	0.0569877	0.0569877	30.6927	1000	-6.52749e-07	18.0063	17.948	15.6216	15.6216	18.0063	17.948	15.6216	18.0063	17.948	574.333	-0	-500
13.4167	0.0569877	0.0569877	0.0569877	30.6927	1000	-6.52749e-07	17.9964	17.9383	15.6128	15.6128	17.9964	17.9383	15.6128	17.9964	17.9383	574.011	-0	-500
13.5	0.0569877	0.0569877	0.0569877	30.6927	1000	-6.52749e-07	17.9864	17.9286	15.6041	15.6041	17.9864	17.9286	15.6041	17.9864	17.9286	573.692	-0	-500
13.5833	0.0569877	0.0569877	0.0569877	30.6927	1000	-6.52749e-07	17.9765	17.919	15.5955	15.5955	17.9765	17.919	15.5955	17.9765	17.919	573.373	-0	-500
13.6667	0.0569877	0.0569877	0.0569877	30.6927	1000	-6.52749e-07	17.9667	17.9094	15.5869	15.5869	17.9667	17.9094	15.5869	17.9667	17.9094	573.056	-0	-500
13.75	0.0569877	0.0569877	0.0569877	30.6927	1000	-6.52749e-07	17.9569	17.8998	15.5783	15.5783	17.9569	17.8998	15.5783	17.9569	17.8998	572.741	-0	-500
13.8333	0.0569877	0.0569877	0.0569877	30.6927	1000	-6.52749e-07	17.9472	17.8903	15.5697	15.5697	17.9472	17.8903	15.5697	17.9472	17.8903	572.426	-0	-500
13.9167	0.0569877	0.0569877	0.0569877	30.6927	1000	-6.52749e-07	17.9374	17.8808	15.5612	15.5612	17.9374	17.8808	15.5612	17.9374	17.8808	572.114	-0	-500
14	0.0569877	0.0569877	0.0569877	30.6927	1000	-6.52749e-07	17.9278	17.8714	15.5527	15.5527	17.9278	17.8714	15.5527	17.9278	17.8714	571.802	-0	-500
14.0833	0.0569877	0.0569877	0.0569877	30.6927	1000	-6.52749e-07	17.9181	17.862	15.5443	15.5443	17.9181	17.862	15.5443	17.9181	17.862	571.492	-0	-500
14.1667	0.0569877	0.0569877	0.0569877	30.6927	1000	-6.52749e-07	17.9085	17.8527	15.5359	15.5359	17.9085	17.8527	15.5359	17.9085	17.8527	571.183	-0	-500
14.25	0.0569877	0.0569877	0.0569877	30.6927	1000	-6.52749e-07	17.899	17.8434	15.5275	15.5275	17.899	17.8434	15.5275	17.899	17.8434	570.875	-0	-500
14.3333	0.0569877	0.0569877	0.0569877	30.6927	1000	-6.52749e-07	17.8895	17.8341	15.5192	15.5192	17.8895	17.8341	15.5192	17.8895	17.8341	570.569	-0	-500
14.4167	0.0569877	0.0569877	0.0569877	30.6927	1000	-6.52749e-07	17.88	17.8249	15.5109	15.5109	17.88	17.8249	15.5109	17.88	17.8249	570.264	-0	-500
14.5	0.0569877	0.0569877	0.0569877	30.6927	1000	-6.52749e-07	17.8706	17.8157	15.5027	15.5027	17.8706	17.8157	15.5027	17.8706	17.8157	569.961	-0	-500
14.5833	0.0569877	0.0569877	0.0569877	30.6927	1000	-6.52749e-07	17.8612	17.8066	15.4944	15.4944	17.8612	17.8066	15.4944	17.8612	17.8066	569.658	-0	-500
14.6667	0.0569877	0.0569877	0.0569877	30.6927	1000	-6.52749e-07	17.8519	17.7974	15.4863	15.4863	17.8519	17.7974	15.4863	17.8519	17.7974	569.357	-0	-500
14.75	0.0569877	0.0569877	0.0569877	30.6927	1000	-6.52749e-07	17.8426	17.7884	15.4781	15.4781	17.8426	17.7884	15.4781	17.8426	17.7884	569.058	-0	-500
14.8333	0.0569877	0.0569877	0.0569877	30.6927	1000	-6.52749e-07	17.8333	17.7794	15.47	15.47	17.8333	17.7794	15.47	17.8333	17.7794	568.759	-0	-500
14.9167	0.0569877	0.0569877	0.0569877	30.6927	1000	-6.52749e-07	17.8241	17.7704	15.4619	15.4619	17.8241	17.7704	15.4619	17.8241	17.7704	568.462	-0	-500
15	0.0569877	0.0569877	0.0569877	30.6927	1000	-6.52749e-07	17.8149	17.7614	15.4539	15.4539	17.8149	17.7614	15.4539	17.8149	17.7614	568.166	-0	-500
15.0833	0.0569877	0.0569877	0.0569877	30.6927	1000	-6.52749e-07	17.8058	17.7525	15.4459	15.4459	17.8058	17.7525	15.4459	17.8058	17.7525	567.872	-0	-500
15.1667	0.0569877	0.0569877	0.0569877	30.6927	1000	-6.52749e-07	17.7967	17.7436	15.4379	15.4379	17.7967	17.7436	15.4379	17.7967	17.7436	567.579	-0	-500
15.25	0.0569877	0.0569877	0.0569877	30.6927	1000	-6.52749e-07	17.7876	17.7348	15.4299	15.4299	17.7876	17.7348	15.4299	17.7876	17.7348	567.287	-0	-500
15.3333	0.0569877	0.0569877	0.0569877	30.6927	1000	-6.52749e-07	17.7786	17.726	15.422	15.422	17.7786	17.726	15.422	17.7786	17.726	566.996	-0	-500
15.4167	0.0569877	0.0569877	0.0569877	30.6927	1000	-6.52749e-07	17.7696	17.7172	15.4142	15.4142	17.7696	17.7172	15.4142	17.7696	17.7172	566.707	-0	-500
15.5	0.0569877	0.0569877	0.0569877	30.6927	1000	-6.52749e-07	17.7606	17.7085	15.4063	15.4063	17.7606	17.7085	15.4063	17.7606	17.7085	566.418	-0	-500
15.5833	0.0569877	0.0569877	0.0569877	30.6927	1000	-6.52749e-07	17.7517	17.6998	15.3985	15.3985	17.7517	17.6998	15.3985	17.7517	17.6998	566.131	-0	-500
15.6667	0.0569877	0.0569877	0.0569877	30.6927	1000	-6.52749e-07	17.7429	17.6912	15.3907	15.3907	17.7429	17.6912	15.3907	17.7429	17.6912	565.846	-0	-500
15.75	0.0569877	0.0569877	0.0569877	30.6927	1000	-6.52749e-07	17.734	17.6826	15.383	15.383	17.734	17.6826	15.383	17.734	17.6826	565.561	-0	-500
15.8333	0.0569877	0.0569877	0.0569877	30.6927	1000	-6.52749e-07	17.7252	17.674	15.3753	15.3753	17.7252	17.674	15.3753	17.7252	17.674	565.278	-0	-500
15.9167	0.0569877	0.0569877	0.0569877	30.6927	1000	-6.52749e-07	17.7165	17.6655	15.3676	15.3676	17.7165	17.6655	15.3676	17.7165	17.6655	564.996	-0	-500
16	0.0569877	0.0569877	0.0569877	30.6927	1000	-6.52749e-07	17.7078	17.657	15.36	15.36	17.7078	17.657	15.36	17.7078	17.657	564.715	-0	-500
16.0833	0.0569877	0.0569877	0.0569877	30.6927	1000	-6.52749e-07	17.6991	17.6485	15.3524	15.3524	17.6991	17.6485	15.3524	17.6991	17.6485	564.435	-0	-500
16.1667	0.0569877	0.0569877	0.0569877	30.6927	1000	-6.52749e-07	17.6904	17.6401	15.3448	15.3448	17.6904	17.6401	15.3448	17.6904	17.6401	564.157	-0	-500
16.25	0.0569877	0.0569877	0.0569877	30.6927	1000	-6.52749e-07	17.6818	17.6317	15.3373	15.3373	17.6818	17.6317	15.3373	17.6818	17.6317	563.88	-0	-500
16.3333	0.0569877	0.0569877	0.0569877	30.6927	1000	-6.52749e-07	17.6733	17.6234	15.3298	15.3298	17.6733	17.6234	15.3298	17.6733	17.6234	563.604	-0	-500
16.4167	0.0569877	0.0569877	0.0569877	30.6927	1000	-6.52749e-07	17.6647	17.615	15.3223	15.3223	17.6647	17.615	15.3223	17.6647	17.615	563.329	-0	-500
16.5	0.0569877	0.0569877	0.0569877	30.6927	1000	-6.52749e-07	17.6562	17.6068	15.3148	15.3148	17.6562	17.6068	15.3148	17.6562	17.6068	563.055	-0	-500
16.5833	0.0569877	0.0569877	0.0569877	30.6927	1000	-6.52749e-07	17.6478	17.5985	15.3074	15.3074	17.6478	17.5985	15.3074	17.6478	17.5985	562.783	-0	-500
16.6667	0.0569877	0.0569877	0.0569877	30.6927	1000	-6.52749e-07	17.6394	17.5903	15.3001	15.3001	17.6394	17.5903	15.3001	17.6394	17.5903	562.512	-0	-500
16.75	0.0569877	0.0569877	0.0569877	30.6927	1000	-6.52749e-07	17.631	17.5821	15.2927	15.2927	17.631	17.5821	15.2927	17.631	17.5821	562.242	-0	-500
16.8333	0.0569877	0.0569877	0.0569877	30.6927	1000	-6.52749e-07	17.6226	17.574	15.2854	15.2854	17.6226	17.574	15.2854	17.6226	17.574	561.973	-0	-500
16.9167	0.0569877	0.0569877	0.0569877	30.6927	1000	-6.52749e-07	17.6143	17.5659	15.2781	15.2781	17.6143	17.5659	15.2781	17.6143	17.5659	561.705	-0	-500
17	0.0569877	0.0569877	0.0569877	30.6927	1000	-6.52749e-07	17.606	17.5578	15.2709	15.2709	17.606	17.5578	15.2709	17.606	17.5578	561.438	-0	-500
17.0833	0.0569877	0.0569877	0.0569877	30.6927	1000	-6.52749e-07	17.5978	17.5498	15.2636	15.2636	17.5978	17.5498	15.2636	17.5978	17.5498	561.173	-0	-500
17.1667	0.0569877	0.0569877	0.0569877	30.6927	1000	-6.52749e-07	17.5896	17.5418	15.2565	15.2565	17.5896	17.5418	15.2565	17.5896	17.5418	560.909	-0	-500
17.25	0.0569877	0.0569877	0.0569877	30.6927	1000	-6.52749e-07	17.5814	17.5338	15.2493	15.2493	17.5814	17.5338	15.2493	17.5814	17.5338	560.645	-0	-500
17.3333	0.0569877	0.0569877	0.0569877	30.6927	1000	-6.52749e-07	17.5733	17.5259	15.2422	15.2422	17.5733	17.5259	15.2422	17.5733	17.5259	560.383	-0	-500
17.4167	0.0569877	0.0569877	0.0569877	30.6927	1000	-6.52749e-07	17.5652	17.518	15.2351	15.2351	17.5652	17.518	15.2351	17.5652	17.518	560.122	-0	-500
17.5	0.0569877	0.0569877	0.0569877	30.6927	1000	-6.52749e-07	17.5571	17.5102	15.228	15.228	17.5571	17.5102	15.228	17.5571	17.5102	559.863	-0	-500
17.5833	0.0569877	0.0569877	0.0569877	30.6927	1000	-6.52749e-07	17.5491	17.5023	15.221	15.221	17.5491	17.5023	15.221	17.5491	17.5023	559.604	-0	-500
17.6667	0.0569877	0.0569877	0.0569877	30.6927	1000	-6.52749e-07	17.5411	17.4945	15.214	15.214	17.5411	17.4945	15.214	17.5411	17.4945	559.347	-0	-500
17.75	0.0569877	0.0569877	0.0569877	30.6927	1000	-6.52749e-07	17.5331	17.4868	15.207	15.207	17.5331	17.4868	15.207	17.5331	17.4868	559.09	-0	-500
17.8333	0.0569877	0.0569877	0.0569877	30.6927	1000	-6.52749e-07	17.5252	17.479	15.2	15.2	17.5252	17.479	15.2	17.5252	17.479	558.835	-0	-500
17.9167	0.0569877	0.0569877	0.0569877	30.6927	1000	-6.52749e-07	17.5173	17.4714	15.1931	15.1931	17.5173	17.4714	15.1931	17.5173	17.4714	558.581	-0	-500
18	0.0569877	0.0569877	0.0569877	30.6927	1000	-6.52749e-07	17.5095	17.4637	15.1862	15.1862	17.5095	17.4637	15.1862	17.5095	17.4637	558.328	-0	-500
18.0833	0.0569877	0.0569877	0.0569877	30.6927	1000	-6.52749e-07	17.5016	17.4561	15.1794	15.1794	17.5016	17.4561	15.1794	17.5016	17.4561	558.076	-0	-500
18.1667	0.0569877	0.0569877	0.0569877	30.6927	1000	-6.52749e-07	17.4939	17.4485	15.1726	15.1726	17.4939	17.4485	15.1726	17.4939	17.4485	557.825	-0	-500
18.25	0.0569877	0.0569877	0.0569877	30.6927	1000	-6.52749e-07	17.4861	17.4409	15.1658	15.1658	17.4861	17.4409	15.1658	17.4861	17.4409	557.575	-0	-500
18.3333	0.0569877	0.0569877	0.0569877	30.6927	1000	-6.52749e-07	17.4784	17.4334	15.159	15.159	17.4784	17.4334	15.159	17.4784	17.4334	557.326	-0	-500
18.4167	0.0569877	0.0569877	0.0569877	30.6927	1000	-6.52749e-07	17.4707	17.4259	15.1523	15.1523	17.4707	17.4259	15.1523	17.4707	17.4259	557.078	-0	-500
18.5	0.0569877	0.0569877	0.0569877	30.6927	1000	-6.52749e-07	17.463	17.4184	15.1456	15.1456	17.463	17.4184	15.1456	17.463	17.4184	556.832	-0	-500
18.5833	0.0569877	0.0569877	0.0569877	30.6927	1000	-6.52749e-07	17.4554	17.411	15.1389	15.1389	17.4554	17.411	15.1389	17.4554	17.411	556.586	-0	-500
18.6667	0.0569877	0.0569877	0.0569877	30.6927	1000	-6.52749e-07	17.4478	17.4036	15.1322	15.1322	17.4478	17.4036	15.1322	17.4478	17.4036	556.342	-0	-500
18.75	0.0569877	0.0569877	0.0569877	30.6927	1000	-6.52749e-07	17.4403	17.3962	15.1256	15.1256	17.4403	17.3962	15.1256	17.4403	17.3962	556.098	-0	-500
18.8333	0.0569877	0.0569877	0.0569877	30.6927	1000	-6.52749e-07	17.4327	17.3889	15.119	15.119	17.4327	17.3889	15.119	17.4327	17.3889	555.856	-0	-500
18.9167	0.0569877	0.0569877	0.0569877	30.6927	1000	-6.52749e-07	17.4252	17.3816	15.1125	15.1125	17.4252	17.3816	15.1125	17.4252	17.3816	555.615	-0	-500
19	0.0569877	0.0569877	0.0569877	30.6927	1000	-6.52749e-07	17.4178	17.3743	15.1059	15.1059	17.4178	17.3743	15.1059	17.4178	17.3743	555.374	-0	-500
19.0833	0.0569877	0.0569877	0.0569877	30.6927	1000	-6.52749e-07	17.4104	17.3671	15.0994	15.0994	17.4104	17.3671	15.0994	17.4104	17.3671	555.135	-0	-500
19.1667	0.0569877	0.0569877	0.0569877	30.6927	1000	-6.52749e-07	17.403	17.3599	15.0929	15.0929	17.403	17.3599	15.0929	17.403	17.3599	554.897	-0	-500
19.25	0.0569877	0.0569877	0.0569877	30.6927	1000	-6.52749e-07	17.3956	17.3527	15.0865	15.0865	17.3956	17.3527	15.0865	17.3956	17.3527	554.66	-0	-500
19.3333	0.0569877	0.0569877	0.0569877	30.6927	1000	-6.52749e-07	17.3883	17.3456	15.0801	15.0801	17.3883	17.3456	15.0801	17.3883	17.3456	554.423	-0	-500
19.4167	0.0569877	0.0569877	0.0569877	30.6927	1000	-6.52749e-07	17.381	17.3385	15.0737	15.0737	17.381	17.3385	15.0737	17.381	17.3385	554.188	-0	-500
19.5	0.0569877	0.0569877	0.0569877	30.6927	1000	-6.52749e-07	17.3737	17.3314	15.0673	15.0673	17.3737	17.3314	15.0673	17.3737	17.3314	553.954	-0	-500
19.5833	0.0569877	0.0569877	0.0569877	30.6927	1000	-6.52749e-07	17.3665	17.3243	15.061	15.061	17.3665	17.3243	15.061	17.3665	17.3243	553.721	-0	-500
19.6667	0.0569877	0.0569877	0.0569877	30.6927	1000	-6.52749e-07	17.3593	17.3173	15.0546	15.0546	17.3593	17.3173	15.0546	17.3593	17.3173	553.489	-0	-500
19.75	0.0569877	0.0569877	0.0569877	30.6927	1000	-6.52749e-07	17.3521	17.3103	15.0484	15.0484	17.3521	17.3103	15.0484	17.3521	17.3103	553.258	-0	-500
19.8333	0.0569877	0.0569877	0.0569877	30.6927	1000	-6.52749e-07	17.3449	17.3033	15.0421	15.0421	17.3449	17.3033	15.0421	17.3449	17.3033	553.028	-0	-500
19.9167	0.0569877	0.0569877	0.0569877	30.6927	1000	-6.52749e-07	17.3378	17.2964	15.0359	15.0359	17.3378	17.2964	15.0359	17.3378	17.2964	552.799	-0	-500
20	0.0569877	0.0569877	0.0569877	30.6927	1000	-6.52749e-07	17.3307	17.2895	15.0297	15.0297	17.3307	17.2895	15.0297	17.3307	17.2895	552.571	-0	-500
20.0833	0.0569877	0.0569877	0.0569877	30.6927	1000	-6.52749e-07	17.3237	17.2826	15.0235	15.0235	17.3237	17.2826	15.0235	17.3237	17.2826	552.343	-0	-500
20.1667	0.0569877	0.0569877	0.0569877	30.6927	1000	-6.52749e-07	17.3167	17.2758	15.0173	15.0173	17.3167	17.2758	15.0173	17.3167	17.2758	552.117	-0	-500
20.25	0.0569877	0.0569877	0.0569877	30.6927	1000	-6.52749e-07	17.3097	17.269	15.0112	15.0112	17.3097	17.269	15.0112	17.3097	17.269	551.892	-0	-500
20.3333	0.0569877	0.0569877	0.0569877	30.6927	1000	-6.52749e-07	17.3027	17.2622	15.0051	15.0051	17.3027	17.2622	15.0051	17.3027	17.2622	551.668	-0	-500
20.4167	0.0569877	0.0569877	0.0569877	30.6927	1000	-6.52749e-07	17.2958	17.2554	14.999	14.999	17.2958	17.2554	14.999	17.2958	17.2554	551.445	-0	-500
20.5	0.0569877	0.0569877	0.0569877	30.6927	1000	-6.52749e-07	17.2889	17.2487	14.993	14.993	17.2889	17.2487	14.993	17.2889	17.2487	551.222	-0	-500
20.5833	0.0569877	0.0569877	0.0569877	30.6927	1000	-6.52749e-07	17.282	17.242	14.987	14.987	17.282	17.242	14.987	17.282	17.242	551.001	-0	-500
20.6667	0.0569877	0.0569877	0.0569877	30.6927	1000	-6.52749e-07	17.2752	17.2353	14.981	14.981	17.2752	17.2353	14.981	17.2752	17.2353	550.781	-0	-500
20.75	0.0569877	0.0569877	0.0569877	30.6927	1000	-6.52749e-07	17.2684	17.2287	14.975	14.975	17.2684	17.2287	14.975	17.2684	17.2287	550.561	-0	-500
20.8333	0.0569877	0.0569877	0.0569877	30.6927	1000	-6.52749e-07	17.2616	17.2221	14.9691	14.9691	17.2616	17.2221	14.9691	17.2616	17.2221	550.343	-0	-500
20.9167	0.0569877	0.0569877	0.0569877	30.6927	1000	-6.52749e-07	17.2548	17.2155	14.9632	14.9632	17.2548	17.2155	14.9632	17.2548	17.2155	550.125	-0	-500
21	0.0569877	0.0569877	0.0569877	30.6927	1000	-6.52749e-07	17.2481	17.209	14.9573	14.9573	17.2481	17.209	14.9573	17.2481	17.209	549.909	-0	-500
21.0833	0.0569877	0.0569877	0.0569877	30.6927	1000	-6.52749e-07	17.2414	17.2024	14.9514	14.9514	17.2414	17.2024	14.9514	17.2414	17.2024	549.693	-0	-500
21.1667	0.0569877	0.0569877	0.0569877	30.6927	1000	-6.52749e-07	17.2348	17.1959	14.9456	14.9456	17.2348	17.1959	14.9456	17.2348	17.1959	549.478	-0	-500
21.25	0.0569877	0.0569877	0.0569877	30.6927	1000	-6.52749e-07	17.2281	17.1895	14.9397	14.9397	17.2281	17.1895	14.9397	17.2281	17.1895	549.265	-0	-500
21.3333	0.0569877	0.0569877	0.0569877	30.6927	1000	-6.52749e-07	17.2215	17.183	14.934	14.934	17.2215	17.183	14.934	17.2215	17.183	549.052	-0	-500
21.4167	0.0569877	0.0569877	0.0569877	30.6927	1000	-6.52749e-07	17.2149	17.1766	14.9282	14.9282	17.2149	17.1766	14.9282	17.2149	17.1766	548.84	-0	-500
21.5	0.0569877	0.0569877	0.0569877	30.6927	1000	-6.52749e-07	17.2084	17.1702	14.9224	14.9224	17.2084	17.1702	14.9224	17.2084	17.1702	548.629	-0	-500
21.5833	0.0569877	0.0569877	0.0569877	30.6927	1000	-6.52749e-07	17.2019	17.1639	14.9167	14.9167	17.2019	17.1639	14.9167	17.2019	17.1639	548.419	-0	-500
21.6667	0.0569877	0.0569877	0.0569877	30.6927	1000	-6.52749e-07	17.1954	17.1575	14.911	14.911	17.1954	17.1575	14.911	17.1954	17.1575	548.21	-0	-500
21.75	0.0569877	0.0569877	0.0569877	30.6927	1000	-6.52749e-07	17.1889	17.1512	14.9054	14.9054	17.1889	17.1512	14.9054	17.1889	17.1512	548.001	-0	-500
21.8333	0.0569877	0.0569877	0.0569877	30.6927	1000	-6.52749e-07	17.1825	17.145	14.8997	14.8997	17.1825	17.145	14.8997	17.1825	17.145	547.794	-0	-500
21.9167	0.0569877	0.0569877	0.0569877	30.6927	1000	-6.52749e-07	17.1761	17.1387	14.8941	14.8941	17.1761	17.1387	14.8941	17.1761	17.1387	547.587	-0	-500
22	0.0569877	0.0569877	0.0569877	30.6927	1000	-6.52749e-07	17.1697	17.1325	14.8885	14.8885	17.1697	17.1325	14.8885	17.1697	17.1325	547.382	-0	-500
22.0833	0.0569877	0.0569877	0.0569877	30.6927	1000	-6.52749e-07	17.1633	17.1263	14.883	14.883	17.1633	17.1263	14.883	17.1633	17.1263	547.177	-0	-500
22.1667	0.0569877	0.0569877	0.0569877	30.6927	1000	-6.52749e-07	17.157	17.1201	14.8774	14.8774	17.157	17.1201	14.8774	17.157	17.1201	546.973	-0	-500
22.25	0.0569877	0.0569877	0.0569877	30.6927	1000	-6.52749e-07	17.1507	17.114	14.8719	14.8719	17.1507	17.114	14.8719	17.1507	17.114	546.77	-0	-500
22.3333	0.0569877	0.0569877	0.0569877	30.6927	1000	-6.52749e-07	17.1444	17.1079	14.8664	14.8664	17.1444	17.1079	14.8664	17.1444	17.1079	546.568	-0	-500
22.4167	0.0569877	0.0569877	0.0569877	30.6927	1000	-6.52749e-07	17.1382	17.1018	14.8609	14.8609	17.1382	17.1018	14.8609	17.1382	17.1018	546.367	-0	-500
22.5	0.0569877	0.0569877	0.0569877	30.6927	1000	-6.52749e-07	17.1319	17.0957	14.8555	14.8555	17.1319	17.0957	14.8555	17.1319	17.0957	546.167	-0	-500
22.5833	0.0569877	0.0569877	0.0569877	30.6927	1000	-6.52749e-07	17.1258	17.0897	14.8501	14.8501	17.1258	17.0897	14.8501	17.1258	17.0897	545.967	-0	-500
22.6667	0.0569877	0.0569877	0.0569877	30.6927	1000	-6.52749e-07	17.1196	17.0837	14.8447	14.8447	17.1196	17.0837	14.8447	17.1196	17.0837	545.769	-0	-500
22.75	0.0569877	0.0569877	0.0569877	30.6927	1000	-6.52749e-07	17.1135	17.0777	14.8393	14.8393	17.1135	17.0777	14.8393	17.1135	17.0777	545.571	-0	-500
22.8333	0.0569877	0.0569877	0.0569877	30.6927	1000	-6.52749e-07	17.1073	17.0717	14.8339	14.8339	17.1073	17.0717	14.8339	17.1073	17.0717	545.374	-0	-500
22.9167	0.0569877	0.0569877	0.0569877	30.6927	1000	-6.52749e-07	17.1013	17.0658	14.8286	14.8286	17.1013	17.0658	14.8286	17.1013	17.0658	545.178	-0	-500
23	0.0569877	0.0569877	0.0569877	30.6927	1000	-6.52749e-07	17.0952	17.0599	14.8233	14.8233	17.0952	17.0599	14.8233	17.0952	17.0599	544.983	-0	-500
23.0833	0.0569877	0.0569877	0.0569877	30.6927	1000	-6.52749e-07	17.0892	17.054	14.818	14.818	17.0892	17.054	14.818	17.0892	17.054	544.788	-0	-500
23.1667	0.0569877	0.0569877	0.0569877	30.6927	1000	-6.52749e-07	17.0832	17.0482	14.8127	14.8127	17.0832	17.0482	14.8127	17.0832	17.0482	544.595	-0	-500
23.25	0.0569877	0.0569877	0.0569877	30.6927	1000	-6.52749e-07	17.0772	17.0423	14.8075	14.8075	17.0772	17.0423	14.8075	17.0772	17.0423	544.402	-0	-500
23.3333	0.0569877	0.0569877	0.0569877	30.6927	1000	-6.52749e-07	17.0712	17.0365	14.8023	14.8023	17.0712	17.0365	14.8023	17.0712	17.0365	544.21	-0	-500
23.4167	0.0569877	0.0569877	0.0569877	30.6927	1000	-6.52749e-07	17.0653	17.0307	14.7971	14.7971	17.0653	17.0307	14.7971	17.0653	17.0307	544.019	-0	-500
23.5	0.0569877	0.0569877	0.0569877	30.6927	1000	-6.52749e-07	17.0594	17.025	14.7919	14.7919	17.0594	17.025	14.7919	17.0594	17.025	543.829	-0	-500
23.5833	0.0569877	0.0569877	0.0569877	30.6927	1000	-6.52749e-07	17.0535	17.0193	14.7867	14.7867	17.0535	17.0193	14.7867	17.0535	17.0193	543.64	-0	-500
23.6667	0.0569877	0.0569877	0.0569877	30.6927	1000	-6.52749e-07	17.0477	17.0136	14.7816	14.7816	17.0477	17.0136	14.7816	17.0477	17.0136	543.451	-0	-500
23.75	0.0569877	0.0569877	0.0569877	30.6927	1000	-6.52749e-07	17.0418	17.0079	14.7765	14.7765	17.0418	17.0079	14.7765	17.0418	17.0079	543.263	-0	-500
23.8333	0.0569877	0.0569877	0.0569877	30.6927	1000	-6.52749e-07	17.036	17.0022	14.7714	14.7714	17.036	17.0022	14.7714	17.036	17.0022	543.077	-0	-500
23.9167	0.0569877	0.0569877	0.0569877	30.6927	1000	-6.52749e-07	17.0302	16.9966	14.7664	14.7664	17.0302	16.9966	14.7664	17.0302	16.9966	542.89	-0	-500
24	0.0569877	0.0569877	0.0569877	30.6927	1000	-6.52749e-07	17.0245	16.991	14.7613	14.7613	17.0245	16.991	14.7613	17.0245	16.991	542.705	-0	-500
24.0833	0.0569877	0.0569877	0.0569877	30.6927	1000	-6.52749e-07	17.0188	16.9854	14.7563	14.7563	17.0188	16.9854	14.7563	17.0188	16.9854	542.521	-0	-500
24.1667	0.0569877	0.0569877	0.0569877	30.6927	1000	-6.52749e-07	17.0131	16.9798	14.7513	14.7513	17.0131	16.9798	14.7513	17.0131	16.9798	542.337	-0	-500
24.25	0.0569877	0.0569877	0.0569877	30.6927	1000	-6.52749e-07	17.0074	16.9743	14.7463	14.7463	17.0074	16.9743	14.7463	17.0074	16.9743	542.154	-0	-500
24.3333	0.0569877	0.0569877	0.0569877	30.6927	1000	-6.52749e-07	17.0017	16.9688	14.7414	14.7414	17.0017	16.9688	14.7414	17.0017	16.9688	541.972	-0	-500
24.4167	0.0569877	0.0569877	0.0569877	30.6927	1000	-6.52749e-07	16.9961	16.9633	14.7364	14.7364	16.9961	16.9633	14.7364	16.9961	16.9633	541.79	-0	-500
24.5	0.0569877	0.0569877	0.0569877	30.6927	1000	-6.52749e-07	16.9905	16.9578	14.7315	14.7315	16.9905	16.9578	14.7315	16.9905	16.9578	541.61	-0	-500
24.5833	0.0569877	0.0569877	0.0569877	30.6927	1000	-6.52749e-07	16.9849	16.9524	14.7266	14.7266	16.9849	16.9524	14.7266	16.9849	16.9524	541.43	-0	-500
24.6667	0.0569877	0.0569877	0.0569877	30.6927	1000	-6.52749e-07	16.9794	16.947	14.7218	14.7218	16.9794	16.947	14.7218	16.9794	16.947	541.251	-0	-500
24.75	0.0569877	0.0569877	0.0569877	30.6927	1000	-6.52749e-07	16.9738	16.9416	14.7169	14.7169	16.9738	16.9416	14.7169	16.9738	16.9416	541.073	-0	-500
24.8333	0.0569877	0.0569877	0.0569877	30.6927	1000	-6.52749e-07	16.9683	16.9362	14.7121	14.7121	16.9683	16.9362	14.7121	16.9683	16.9362	540.895	-0	-500
24.9167	0.0569877	0.0569877	0.0569877	30.6927	1000	-6.52749e-07	16.9628	16.9309	14.7073	14.7073	16.9628	16.9309	14.7073	16.9628	16.9309	540.719	-0	-500
25	0.0569877	0.0569877	0.0569877	30.6927	1000	-6.52749e-07	16.9574	16.9256	14.7025	14.7025	16.9574	16.9256	14.7025	16.9574	16.9256	540.543	-0	-500
25.0833	0.0569877	0.0569877	0.0569877	30.6927	1000	-6.52749e-07	16.9519	16.9203	14.6977	14.6977	16.9519	16.9203	14.6977	16.9519	16.9203	540.368	-0	-500
25.1667	0.0569877	0.0569877	0.0569877	30.6927	1000	-6.52749e-07	16.9465	16.915	14.693	14.693	16.9465	16.915	14.693	16.9465	16.915	540.193	-0	-500
25.25	0.0569877	0.0569877	0.0569877	30.6927	1000	-6.52749e-07	16.9411	16.9097	14.6883	14.6883	16.9411	16.9097	14.6883	16.9411	16.9097	540.02	-0	-500
25.3333	0.0569877	0.0569877	0.0569877	30.6927	1000	-6.52749e-07	16.9358	16.9045	14.6836	14.6836	16.9358	16.9045	14.6836	16.9358	16.9045	539.847	-0	-500
25.4167	0.0569877	0.0569877	0.0569877	30.6927	1000	-6.52749e-07	16.9304	16.8993	14.6789	14.6789	16.9304	16.8993	14.6789	16.9304	16.8993	539.675	-0	-500
25.5	0.0569877	0.0569877	0.0569877	30.6927	1000	-6.52749e-07	16.9251	16.8941	14.6742	14.6742	16.9251	16.8941	14.6742	16.9251	16.8941	539.503	-0	-500
25.5833	0.0569877	0.0569877	0.0569877	30.6927	1000	-6.52749e-07	16.9198	16.8889	14.6696	14.6696	16.9198	16.8889	14.6696	16.9198	16.8889	539.332	-0	-500
25.6667	0.0569877	0.0569877	0.0569877	30.6927	1000	-6.52749e-07	16.9145	16.8838	14.665	14.665	16.9145	16.8838	14.665	16.9145	16.8838	539.163	-0	-500
25.75	0.0569877	0.0569877	0.0569877	30.6927	1000	-6.52749e-07	16.9093	16.8787	14.6604	14.6604	16.9093	16.8787	14.6604	16.9093	16.8787	538.993	-0	-500
25.8333	0.0569877	0.0569877	0.0569877	30.6927	1000	-6.52749e-07	16.904	16.8736	14.6558	14.6558	16.904	16.8736	14.6558	16.904	16.8736	538.825	-0	-500
25.9167	0.0569877	0.0569877	0.0569877	30.6927	1000	-6.52749e-07	16.8988	16.8685	14.6512	14.6512	16.8988	16.8685	14.6512	16.8988	16.8685	538.657	-0	-500
26	0.0569877	0.0569877	0.0569877	30.6927	1000	-6.52749e-07	16.8936	16.8634	14.6467	14.6467	16.8936	16.8634	14.6467	16.8936	16.8634	538.49	-0	-500
26.0833	0.0569877	0.0569877	0.0569877	30.6927	1000	-6.52749e-07	16.8885	16.8584	14.6422	14.6422	16.8885	16.8584	14.6422	16.8885	16.8584	538.324	-0	-500
26.1667	0.0569877	0.0569877	0.0569877	30.6927	1000	-6.52749e-07	16.8833	16.8534	14.6377	14.6377	16.8833	16.8534	14.6377	16.8833	16.8534	538.158	-0	-500
26.25	0.0569877	0.0569877	0.0569877	30.6927	1000	-6.52749e-07	16.8782	16.8484	14.6332	14.6332	16.8782	16.8484	14.6332	16.8782	16.8484	537.993	-0	-500
26.3333	0.0569877	0.0569877	0.0569877	30.6927	1000	-6.52749e-07	16.8731	16.8434	14.6287	14.6287	16.8731	16.8434	14.6287	16.8731	16.8434	537.829	-0	-500
26.4167	0.0569877	0.0569877	0.0569877	30.6927	1000	-6.52749e-07	16.868	16.8385	14.6243	14.6243	16.868	16.8385	14.6243	16.868	16.8385	537.666	-0	-500
26.5	0.0569877	0.0569877	0.0569877	30.6927	1000	-6.52749e-07	16.863	16.8336	14.6198	14.6198	16.863	16.8336	14.6198	16.863	16.8336	537.503	-0	-500
26.5833	0.0569877	0.0569877	0.0569877	30.6927	1000	-6.52749e-07	16.858	16.8287	14.6154	14.6154	16.858	16.8287	14.6154	16.858	16.8287	537.341	-0	-500
26.6667	0.0569877	0.0569877	0.0569877	30.6927	1000	-6.52749e-07	16.853	16.8238	14.611	14.611	16.853	16.8238	14.611	16.853	16.8238	537.18	-0	-500
26.75	0.0569877	0.0569877	0.0569877	30.6927	1000	-6.52749e-07	16.848	16.8189	14.6067	14.6067	16.848	16.8189	14.6067	16.848	16.8189	537.019	-0	-500
26.8333	0.0569877	0.0569877	0.0569877	30.6927	1000	-6.52749e-07	16.843	16.8141	14.6023	14.6023	16.843	16.8141	14.6023	16.843	16.8141	536.859	-0	-500
26.9167	0.0569877	0.0569877	0.0569877	30.6927	1000	-6.52749e-07	16.8381	16.8093	14.598	14.598	16.8381	16.8093	14.598	16.8381	16.8093	536.7	-0	-500
27	0.0569877	0.0569877	0.0569877	30.6927	1000	-6.52749e-07	16.8331	16.8045	14.5937	14.5937	16.8331	16.8045	14.5937	16.8331	16.8045	536.541	-0	-500
27.0833	0.0569877	0.0569877	0.0569877	30.6927	1000	-6.52749e-07	16.8282	16.7997	14.5894	14.5894	16.8282	16.7997	14.5894	16.8282	16.7997	536.383	-0	-500
27.1667	0.0569877	0.0569877	0.0569877	30.6927	1000	-6.52749e-07	16.8234	16.7949	14.5851	14.5851	16.8234	16.7949	14.5851	16.8234	16.7949	536.226	-0	-500
27.25	0.0569877	0.0569877	0.0569877	30.6927	1000	-6.52749e-07	16.8185	16.7902	14.5808	14.5808	16.8185	16.7902	14.5808	16.8185	16.7902	536.07	-0	-500
27.3333	0.0569877	0.0569877	0.0569877	30.6927	1000	-6.52749e-07	16.8137	16.7855	14.5766	14.5766	16.8137	16.7855	14.5766	16.8137	16.7855	535.914	-0	-500
27.4167	0.0569877	0.0569877	0.0569877	30.6927	1000	-6.52749e-07	16.8088	16.7808	14.5724	14.5724	16.8088	16.7808	14.5724	16.8088	16.7808	535.759	-0	-500
27.5	0.0569877	0.0569877	0.0569877	30.6927	1000	-6.52749e-07	16.804	16.7761	14.5682	14.5682	16.804	16.7761	14.5682	16.804	16.7761	535.604	-0	-500
27.5833	0.0569877	0.0569877	0.0569877	30.6927	1000	-6.52749e-07	16.7993	16.7715	14.564	14.564	16.7993	16.7715	14.564	16.7993	16.7715	535.45	-0	-500
27.6667	0.0569877	0.0569877	0.0569877	30.6927	1000	-6.52749e-07	16.7945	16.7668	14.5598	14.5598	16.7945	16.7668	14.5598	16.7945	16.7668	535.297	-0	-500
27.75	0.0569877	0.0569877	0.0569877	30.6927	1000	-6.52749e-07	16.7898	16.7622	14.5557	14.5557	16.7898	16.7622	14.5557	16.7898	16.7622	535.145	-0	-500
27.8333	0.0569877	0.0569877	0.0569877	30.6927	1000	-6.52749e-07	16.7851	16.7576	14.5516	14.5516	16.7851	16.7576	14.5516	16.7851	16.7576	534.993	-0	-500
27.9167	0.0569877	0.0569877	0.0569877	30.6927	1000	-6.52749e-07	16.7804	16.753	14.5474	14.5474	16.7804	16.753	14.5474	16.7804	16.753	534.842	-0	-500
28	0.0569877	0.0569877	0.0569877	30.6927	1000	-6.52749e-07	16.7757	16.7485	14.5433	14.5433	16.7757	16.7485	14.5433	16.7757	16.7485	534.691	-0	-500
28.0833	0.0569877	0.0569877	0.0569877	30.6927	1000	-6.52749e-07	16.7711	16.7439	14.5393	14.5393	16.7711	16.7439	14.5393	16.7711	16.7439	534.541	-0	-500
28.1667	0.0569877	0.0569877	0.0569877	30.6927	1000	-6.52749e-07	16.7664	16.7394	14.5352	14.5352	16.7664	16.7394	14.5352	16.7664	16.7394	534.392	-0	-500
28.25	0.0569877	0.0569877	0.0569877	30.6927	1000	-6.52749e-07	16.7618	16.7349	14.5312	14.5312	16.7618	16.7349	14.5312	16.7618	16.7349	534.243	-0	-500
28.3333	0.0569877	0.0569877	0.0569877	30.6927	1000	-6.52749e-07	16.7572	16.7305	14.5271	14.5271	16.7572	16.7305	14.5271	16.7572	16.7305	534.095	-0	-500
28.4167	0.0569877	0.0569877	0.0569877	30.6927	1000	-6.52749e-07	16.7526	16.726	14.5231	14.5231	16.7526	16.726	14.5231	16.7526	16.726	533.948	-0	-500
28.5	0.0569877	0.0569877	0.0569877	30.6927	1000	-6.52749e-07	16.7481	16.7216	14.5191	14.5191	16.7481	16.7216	14.5191	16.7481	16.7216	533.801	-0	-500
28.5833	0.0569877	0.0569877	0.0569877	30.6927	1000	-6.52749e-07	16.7436	16.7171	14.5152	14.5152	16.7436	16.7171	14.5152	16.7436	16.7171	533.655	-0	-500
28.6667	0.0569877	0.0569877	0.0569877	30.6927	1000	-6.52749e-07	16.739	16.7127	14.5112	14.5112	16.739	16.7127	14.5112	16.739	16.7127	533.51	-0	-500
28.75	0.0569877	0.0569877	0.0569877	30.6927	1000	-6.52749e-07	16.7345	16.7084	14.5073	14.5073	16.7345	16.7084	14.5073	16.7345	16.7084	533.365	-0	-500
28.8333	0.0569877	0.0569877	0.0569877	30.6927	1000	-6.52749e-07	16.7301	16.704	14.5034	14.5034	16.7301	16.704	14.5034	16.7301	16.704	533.221	-0	-500
28.9167	0.0569877	0.0569877	0.0569877	30.6927	1000	-6.52749e-07	16.7256	16.6997	14.4995	14.4995	16.7256	16.6997	14.4995	16.7256	16.6997	533.077	-0	-500
29	0.0569877	0.0569877	0.0569877	30.6927	1000	-6.52749e-07	16.7212	16.6953	14.4956	14.4956	16.7212	16.6953	14.4956	16.7212	16.6953	532.935	-0	-500
29.0833	0.0569877	0.0569877	0.0569877	30.6927	1000	-6.52749e-07	16.7168	16.691	14.4917	14.4917	16.7168	16.691	14.4917	16.7168	16.691	532.792	-0	-500
29.1667	0.0569877	0.0569877	0.0569877	30.6927	1000	-6.52749e-07	16.7124	16.6867	14.4878	14.4878	16.7124	16.6867	14.4878	16.7124	16.6867	532.651	-0	-500
29.25	0.0569877	0.0569877	0.0569877	30.6927	1000	-6.52749e-07	16.708	16.6825	14.484	14.484	16.708	16.6825	14.484	16.708	16.6825	532.509	-0	-500
29.3333	0.0569877	0.0569877	0.0569877	30.6927	1000	-6.52749e-07	16.7036	16.6782	14.4802	14.4802	16.7036	16.6782	14.4802	16.7036	16.6782	532.369	-0	-500
29.4167	0.0569877	0.0569877	0.0569877	30.6927	1000	-6.52749e-07	16.6993	16.674	14.4764	14.4764	16.6993	16.674	14.4764	16.6993	16.674	532.229	-0	-500
29.5	0.0569877	0.0569877	0.0569877	30.6927	1000	-6.52749e-07	16.695	16.6698	14.4726	14.4726	16.695	16.6698	14.4726	16.695	16.6698	532.09	-0	-500
29.5833	0.0569877	0.0569877	0.0569877	30.6927	1000	-6.52749e-07	16.6907	16.6656	14.4688	14.4688	16.6907	16.6656	14.4688	16.6907	16.6656	531.951	-0	-500
29.6667	0.0569877	0.0569877	0.0569877	30.6927	1000	-6.52749e-07	16.6864	16.6614	14.4651	14.4651	16.6864	16.6614	14.4651	16.6864	16.6614	531.813	-0	-500
29.75	0.0569877	0.0569877	0.0569877	30.6927	1000	-6.52749e-07	16.6821	16.6572	14.4613	14.4613	16.6821	16.6572	14.4613	16.6821	16.6572	531.676	-0	-500
29.8333	0.0569877	0.0569877	0.0569877	30.6927	1000	-6.52749e-07	16.6779	16.6531	14.4576	14.4576	16.6779	16.6531	14.4576	16.6779	16.6531	531.539	-0	-500
29.9167	0.0569877	0.0569877	0.0569877	30.6927	1000	-6.52749e-07	16.6736	16.649	14.4539	14.4539	16.6736	16.649	14.4539	16.6736	16.649	531.403	-0	-500
30	0.0569877	0.0569877	0.0569877	30.6927	1000	-6.52749e-07	16.6694	16.6449	14.4502	14.4502	16.6694	16.6449	14.4502	16.6694	16.6449	531.267	-0	-500
30.0833	0.0569877	0.0569877	0.0569877	30.6927	1000	-6.52749e-07	16.6652	16.6408	14.4465	14.4465	16.6652	16.6408	14.4465	16.6652	16.6408	531.132	-0	-500
30.1667	0.0569877	0.0569877	0.0569877	30.6927	1000	-6.52749e-07	16.661	16.6367	14.4429	14.4429	16.661	16.6367	14.4429	16.661	16.6367	530.997	-0	-500
30.25	0.0569877	0.0569877	0.0569877	30.6927	1000	-6.52749e-07	16.6569	16.6327	14.4392	14.4392	16.6569	16.6327	14.4392	16.6569	16.6327	530.863	-0	-500
30.3333	0.0569877	0.0569877	0.0569877	30.6927	1000	-6.52749e-07	16.6527	16.6286	14.4356	14.4356	16.6527	16.6286	14.4356	16.6527	16.6286	530.73	-0	-500
30.4167	0.0569877	0.0569877	0.0569877	30.6927	1000	-6.52749e-07	16.6486	16.6246	14.432	14.432	16.6486	16.6246	14.432	16.6486	16.6246	530.597	-0	-500
30.5	0.0569877	0.0569877	0.0569877	30.6927	1000	-6.52749e-07	16.6445	16.6206	14.4284	14.4284	16.6445	16.6206	14.4284	16.6445	16.6206	530.465	-0	-500
30.5833	0.0569877	0.0569877	0.0569877	30.6927	1000	-6.52749e-07	16.6404	16.6166	14.4248	14.4248	16.6404	16.6166	14.4248	16.6404	16.6166	530.334	-0	-500
30.6667	0.0569877	0.0569877	0.0569877	30.6927	1000	-6.52749e-07	16.6364	16.6127	14.4213	14.4213	16.6364	16.6127	14.4213	16.6364	16.6127	530.202	-0	-500
30.75	0.0569877	0.0569877	0.0569877	30.6927	1000	-6.52749e-07	16.6323	16.6087	14.4177	14.4177	16.6323	16.6087	14.4177	16.6323	16.6087	530.072	-0	-500
30.8333	0.0569877	0.0569877	0.0569877	30.6927	1000	-6.52749e-07	16.6283	16.6048	14.4142	14.4142	16.6283	16.6048	14.4142	16.6283	16.6048	529.942	-0	-500
30.9167	0.0569877	0.0569877	0.0569877	30.6927	1000	-6.52749e-07	16.6243	16.6009	14.4107	14.4107	16.6243	16.6009	14.4107	16.6243	16.6009	529.813	-0	-500
31	0.0569877	0.0569877	0.0569877	30.6927	1000	-6.52749e-07	16.6203	16.597	14.4072	14.4072	16.6203	16.597	14.4072	16.6203	16.597	529.684	-0	-500
31.0833	0.0569877	0.0569877	0.0569877	30.6927	1000	-6.52749e-07	16.6163	16.5931	14.4037	14.4037	16.6163	16.5931	14.4037	16.6163	16.5931	529.556	-0	-500
31.1667	0.0569877	0.0569877	0.0569877	30.6927	1000	-6.52749e-07	16.6123	16.5892	14.4002	14.4002	16.6123	16.5892	14.4002	16.6123	16.5892	529.428	-0	-500
31.25	0.0569877	0.0569877	0.0569877	30.6927	1000	-6.52749e-07	16.6084	16.5854	14.3967	14.3967	16.6084	16.5854	14.3967	16.6084	16.5854	529.301	-0	-500
31.3333	0.0569877	0.0569877	0.0569877	30.6927	1000	-6.52749e-07	16.6044	16.5815	14.3933	14.3933	16.6044	16.5815	14.3933	16.6044	16.5815	529.174	-0	-500
31.4167	0.0569877	0.0569877	0.0569877	30.6927	1000	-6.52749e-07	16.6005	16.5777	14.3899	14.3899	16.6005	16.5777	14.3899	16.6005	16.5777	529.048	-0	-500
31.5	0.0569877	0.0569877	0.0569877	30.6927	1000	-6.52749e-07	16.5966	16.5739	14.3864	14.3864	16.5966	16.5739	14.3864	16.5966	16.5739	528.923	-0	-500
31.5833	0.0569877	0.0569877	0.0569877	30.6927	1000	-6.52749e-07	16.5928	16.5702	14.383	14.383	16.5928	16.5702	14.383	16.5928	16.5702	528.798	-0	-500
31.6667	0.0569877	0.0569877	0.0569877	30.6927	1000	-6.52749e-07	16.5889	16.5664	14.3797	14.3797	16.5889	16.5664	14.3797	16.5889	16.5664	528.673	-0	-500
31.75	0.0569877	0.0569877	0.0569877	30.6927	1000	-6.52749e-07	16.585	16.5626	14.3763	14.3763	16.585	16.5626	14.3763	16.585	16.5626	528.549	-0	-500
31.8333	0.0569877	0.0569877	0.0569877	30.6927	1000	-6.52749e-07	16.5812	16.5589	14.3729	14.3729	16.5812	16.5589	14.3729	16.5812	16.5589	528.426	-0	-500
31.9167	0.0569877	0.0569877	0.0569877	30.6927	1000	-6.52749e-07	16.5774	16.5552	14.3696	14.3696	16.5774	16.5552	14.3696	16.5774	16.5552	528.303	-0	-500
32	0.0569877	0.0569877	0.0569877	30.6927	1000	-6.52749e-07	16.5736	16.5515	14.3663	14.3663	16.5736	16.5515	14.3663	16.5736	16.5515	528.181	-0	-500
32.0833	0.0569877	0.0569877	0.0569877	30.6927	1000	-6.52749e-07	16.5698	16.5478	14.363	14.363	16.5698	16.5478	14.363	16.5698	16.5478	528.059	-0	-500
32.1667	0.0569877	0.0569877	0.0569877	30.6927	1000	-6.52749e-07	16.5661	16.5441	14.3597	14.3597	16.5661	16.5441	14.3597	16.5661	16.5441	527.938	-0	-500
32.25	0.0569877	0.0569877	0.0569877	30.6927	1000	-6.52749e-07	16.5623	16.5405	14.3564	14.3564	16.5623	16.5405	14.3564	16.5623	16.5405	527.817	-0	-500
32.3333	0.0569877	0.0569877	0.0569877	30.6927	1000	-6.52749e-07	16.5586	16.5369	14.3531	14.3531	16.5586	16.5369	14.3531	16.5586	16.5369	527.697	-0	-500
32.4167	0.0569877	0.0569877	0.0569877	30.6927	1000	-6.52749e-07	16.5549	16.5332	14.3499	14.3499	16.5549	16.5332	14.3499	16.5549	16.5332	527.577	-0	-500
32.5	0.0569877	0.0569877	0.0569877	30.6927	1000	-6.52749e-07	16.5512	16.5296	14.3466	14.3466	16.5512	16.5296	14.3466	16.5512	16.5296	527.458	-0	-500
32.5833	0.0569877	0.0569877	0.0569877	30.6927	1000	-6.52749e-07	16.5475	16.526	14.3434	14.3434	16.5475	16.526	14.3434	16.5475	16.526	527.34	-0	-500
32.6667	0.0569877	0.0569877	0.0569877	30.6927	1000	-6.52749e-07	16.5438	16.5225	14.3402	14.3402	16.5438	16.5225	14.3402	16.5438	16.5225	527.221	-0	-500
32.75	0.0569877	0.0569877	0.0569877	30.6927	1000	-6.52749e-07	16.5402	16.5189	14.337	14.337	16.5402	16.5189	14.337	16.5402	16.5189	527.104	-0	-500
32.8333	0.0569877	0.0569877	0.0569877	30.6927	1000	-6.52749e-07	16.5365	16.5154	14.3338	14.3338	16.5365	16.5154	14.3338	16.5365	16.5154	526.987	-0	-500
32.9167	0.0569877	0.0569877	0.0569877	30.6927	1000	-6.52749e-07	16.5329	16.5118	14.3306	14.3306	16.5329	16.5118	14.3306	16.5329	16.5118	526.87	-0	-500
33	0.0569877	0.0569877	0.0569877	30.6927	1000	-6.52749e-07	16.5293	16.5083	14.3275	14.3275	16.5293	16.5083	14.3275	16.5293	16.5083	526.754	-0	-500
33.0833	0.0569877	0.0569877	0.0569877	30.6927	1000	-6.52749e-07	16.5257	16.5048	14.3243	14.3243	16.5257	16.5048	14.3243	16.5257	16.5048	526.638	-0	-500
33.1667	0.0569877	0.0569877	0.0569877	30.6927	1000	-6.52749e-07	16.5221	16.5013	14.3212	14.3212	16.5221	16.5013	14.3212	16.5221	16.5013	526.523	-0	-500
33.25	0.0569877	0.0569877	0.0569877	30.6927	1000	-6.52749e-07	16.5186	16.4979	14.3181	14.3181	16.5186	16.4979	14.3181	16.5186	16.4979	526.409	-0	-500
33.3333	0.0569877	0.0569877	0.0569877	30.6927	1000	-6.52749e-07	16.515	16.4944	14.315	14.315	16.515	16.4944	14.315	16.515	16.4944	526.295	-0	-500
33.4167	0.0569877	0.0569877	0.0569877	30.6927	1000	-6.52749e-07	16.5115	16.491	14.3119	14.3119	16.5115	16.491	14.3119	16.5115	16.491	526.181	-0	-500
33.5	0.0569877	0.0569877	0.0569877	30.6927	1000	-6.52749e-07	16.508	16.4876	14.3088	14.3088	16.508	16.4876	14.3088	16.508	16.4876	526.068	-0	-500
33.5833	0.0569877	0.0569877	0.0569877	30.6927	1000	-6.52749e-07	16.5045	16.4841	14.3057	14.3057	16.5045	16.4841	14.3057	16.5045	16.4841	525.955	-0	-500
33.6667	0.0569877	0.0569877	0.0569877	30.6927	1000	-6.52749e-07	16.501	16.4808	14.3027	14.3027	16.501	16.4808	14.3027	16.501	16.4808	525.843	-0	-500
33.75	0.0569877	0.0569877	0.0569877	30.6927	1000	-6.52749e-07	16.4976	16.4774	14.2997	14.2997	16.4976	16.4774	14.2997	16.4976	16.4774	525.731	-0	-500
33.8333	0.0569877	0.0569877	0.0569877	30.6927	1000	-6.52749e-07	16.4941	16.474	14.2966	14.2966	16.4941	16.474	14.2966	16.4941	16.474	525.62	-0	-500
33.9167	0.0569877	0.0569877	0.0569877	30.6927	1000	-6.52749e-07	16.4907	16.4707	14.2936	14.2936	16.4907	16.4707	14.2936	16.4907	16.4707	525.51	-0	-500
34	0.0569877	0.0569877	0.0569877	30.6927	1000	-6.52749e-07	16.4873	16.4673	14.2906	14.2906	16.4873	16.4673	14.2906	16.4873	16.4673	525.399	-0	-500
34.0833	0.0569877	0.0569877	0.0569877	30.6927	1000	-6.52749e-07	16.4839	16.464	14.2876	14.2876	16.4839	16.464	14.2876	16.4839	16.464	525.29	-0	-500
34.1667	0.0569877	0.0569877	0.0569877	30.6927	1000	-6.52749e-07	16.4805	16.4607	14.2847	14.2847	16.4805	16.4607	14.2847	16.4805	16.4607	525.18	-0	-500
34.25	0.0569877	0.0569877	0.0569877	30.6927	1000	-6.52749e-07	16.4771	16.4574	14.2817	14.2817	16.4771	16.4574	14.2817	16.4771	16.4574	525.072	-0	-500
34.3333	0.0569877	0.0569877	0.0569877	30.6927	1000	-6.52749e-07	16.4737	16.4541	14.2788	14.2788	16.4737	16.4541	14.2788	16.4737	16.4541	524.963	-0	-500
34.4167	0.0569877	0.0569877	0.0569877	30.6927	1000	-6.52749e-07	16.4704	16.4509	14.2758	14.2758	16.4704	16.4509	14.2758	16.4704	16.4509	524.855	-0	-500
34.5	0.0569877	0.0569877	0.0569877	30.6927	1000	-6.52749e-07	16.467	16.4476	14.2729	14.2729	16.467	16.4476	14.2729	16.467	16.4476	524.748	-0	-500
34.5833	0.0569877	0.0569877	0.0569877	30.6927	1000	-6.52749e-07	16.4637	16.4444	14.27	14.27	16.4637	16.4444	14.27	16.4637	16.4444	524.641	-0	-500
34.6667	0.0569877	0.0569877	0.0569877	30.6927	1000	-6.52749e-07	16.4604	16.4412	14.2671	14.2671	16.4604	16.4412	14.2671	16.4604	16.4412	524.535	-0	-500
34.75	0.0569877	0.0569877	0.0569877	30.6927	1000	-6.52749e-07	16.4571	16.438	14.2642	14.2642	16.4571	16.438	14.2642	16.4571	16.438	524.429	-0	-500
34.8333	0.0569877	0.0569877	0.0569877	30.6927	1000	-6.52749e-07	16.4538	16.4348	14.2613	14.2613	16.4538	16.4348	14.2613	16.4538	16.4348	524.323	-0	-500
34.9167	0.0569877	0.0569877	0.0569877	30.6927	1000	-6.52749e-07	16.4506	16.4316	14.2585	14.2585	16.4506	16.4316	14.2585	16.4506	16.4316	524.218	-0	-500
35	0.0569877	0.0569877	0.0569877	30.6927	1000	-6.52749e-07	16.4473	16.4284	14.2556	14.2556	16.4473	16.4284	14.2556	16.4473	16.4284	524.113	-0	-500
35.0833	0.0569877	0.0569877	0.0569877	30.6927	1000	-6.52749e-07	16.4441	16.4253	14.2528	14.2528	16.4441	16.4253	14.2528	16.4441	16.4253	524.009	-0	-500
35.1667	0.0569877	0.0569877	0.0569877	30.6927	1000	-6.52749e-07	16.4409	16.4221	14.25	14.25	16.4409	16.4221	14.25	16.4409	16.4221	523.905	-0	-500
35.25	0.0569877	0.0569877	0.0569877	30.6927	1000	-6.52749e-07	16.4377	16.419	14.2472	14.2472	16.4377	16.419	14.2472	16.4377	16.419	523.802	-0	-500
35.3333	0.0569877	0.0569877	0.0569877	30.6927	1000	-6.52749e-07	16.4345	16.4159	14.2444	14.2444	16.4345	16.4159	14.2444	16.4345	16.4159	523.699	-0	-500
35.4167	0.0569877	0.0569877	0.0569877	30.6927	1000	-6.52749e-07	16.4313	16.4128	14.2416	14.2416	16.4313	16.4128	14.2416	16.4313	16.4128	523.597	-0	-500
35.5	0.0569877	0.0569877	0.0569877	30.6927	1000	-6.52749e-07	16.4281	16.4097	14.2388	14.2388	16.4281	16.4097	14.2388	16.4281	16.4097	523.495	-0	-500
35.5833	0.0569877	0.0569877	0.0569877	30.6927	1000	-6.52749e-07	16.425	16.4066	14.2361	14.2361	16.425	16.4066	14.2361	16.425	16.4066	523.393	-0	-500
35.6667	0.0569877	0.0569877	0.0569877	30.6927	1000	-6.52749e-07	16.4218	16.4036	14.2333	14.2333	16.4218	16.4036	14.2333	16.4218	16.4036	523.292	-0	-500
35.75	0.0569877	0.0569877	0.0569877	30.6927	1000	-6.52749e-07	16.4187	16.4005	14.2306	14.2306	16.4187	16.4005	14.2306	16.4187	16.4005	523.192	-0	-500
35.8333	0.0569877	0.0569877	0.0569877	30.6927	1000	-6.52749e-07	16.4156	16.3975	14.2278	14.2278	16.4156	16.3975	14.2278	16.4156	16.3975	523.092	-0	-500
35.9167	0.0569877	0.0569877	0.0569877	30.6927	1000	-6.52749e-07	16.4125	16.3945	14.2251	14.2251	16.4125	16.3945	14.2251	16.4125	16.3945	522.992	-0	-500
36	0.0569877	0.0569877	0.0569877	30.6927	1000	-6.52749e-07	16.4094	16.3915	14.2224	14.2224	16.4094	16.3915	14.2224	16.4094	16.3915	522.892	-0	-500
36.0833	0.0569877	0.0569877	0.0569877	30.6927	1000	-6.52749e-07	16.4064	16.3885	14.2197	14.2197	16.4064	16.3885	14.2197	16.4064	16.3885	522.794	-0	-500
36.1667	0.0569877	0.0569877	0.0569877	30.6927	1000	-6.52749e-07	16.4033	16.3855	14.2171	14.2171	16.4033	16.3855	14.2171	16.4033	16.3855	522.695	-0	-500
36.25	0.0569877	0.0569877	0.0569877	30.6927	1000	-6.52749e-07	16.4003	16.3825	14.2144	14.2144	16.4003	16.3825	14.2144	16.4003	16.3825	522.597	-0	-500
36.3333	0.0569877	0.0569877	0.0569877	30.6927	1000	-6.52749e-07	16.3972	16.3796	14.2117	14.2117	16.3972	16.3796	14.2117	16.3972	16.3796	522.499	-0	-500
36.4167	0.0569877	0.0569877	0.0569877	30.6927	1000	-6.52749e-07	16.3942	16.3766	14.2091	14.2091	16.3942	16.3766	14.2091	16.3942	16.3766	522.402	-0	-500
36.5	0.0569877	0.0569877	0.0569877	30.6927	1000	-6.52749e-07	16.3912	16.3737	14.2065	14.2065	16.3912	16.3737	14.2065	16.3912	16.3737	522.305	-0	-500
36.5833	0.0569877	0.0569877	0.0569877	30.6927	1000	-6.52749e-07	16.3882	16.3708	14.2038	14.2038	16.3882	16.3708	14.2038	16.3882	16.3708	522.209	-0	-500
36.6667	0.0569877	0.0569877	0.0569877	30.6927	1000	-6.52749e-07	16.3852	16.3679	14.2012	14.2012	16.3852	16.3679	14.2012	16.3852	16.3679	522.113	-0	-500
36.75	0.0569877	0.0569877	0.0569877	30.6927	1000	-6.52749e-07	16.3823	16.365	14.1986	14.1986	16.3823	16.365	14.1986	16.3823	16.365	522.018	-0	-500
36.8333	0.0569877	0.0569877	0.0569877	30.6927	1000	-6.52749e-07	16.3793	16.3621	14.196	14.196	16.3793	16.3621	14.196	16.3793	16.3621	521.922	-0	-500
36.9167	0.0569877	0.0569877	0.0569877	30.6927	1000	-6.52749e-07	16.3764	16.3593	14.1935	14.1935	16.3764	16.3593	14.1935	16.3764	16.3593	521.828	-0	-500
37	0.0569877	0.0569877	0.0569877	30.6927	1000	-6.52749e-07	16.3735	16.3564	14.1909	14.1909	16.3735	16.3564	14.1909	16.3735	16.3564	521.733	-0	-500
37.0833	0.0569877	0.0569877	0.0569877	30.6927	1000	-6.52749e-07	16.3705	16.3536	14.1883	14.1883	16.3705	16.3536	14.1883	16.3705	16.3536	521.639	-0	-500
37.1667	0.0569877	0.0569877	0.0569877	30.6927	1000	-6.52749e-07	16.3676	16.3507	14.1858	14.1858	16.3676	16.3507	14.1858	16.3676	16.3507	521.546	-0	-500
37.25	0.0569877	0.0569877	0.0569877	30.6927	1000	-6.52749e-07	16.3647	16.3479	14.1833	14.1833	16.3647	16.3479	14.1833	16.3647	16.3479	521.453	-0	-500
37.3333	0.0569877	0.0569877	0.0569877	30.6927	1000	-6.52749e-07	16.3619	16.3451	14.1808	14.1808	16.3619	16.3451	14.1808	16.3619	16.3451	521.36	-0	-500
37.4167	0.0569877	0.0569877	0.0569877	30.6927	1000	-6.52749e-07	16.359	16.3423	14.1782	14.1782	16.359	16.3423	14.1782	16.359	16.3423	521.268	-0	-500
37.5	0.0569877	0.0569877	0.0569877	30.6927	1000	-6.52749e-07	16.3561	16.3395	14.1757	14.1757	16.3561	16.3395	14.1757	16.3561	16.3395	521.176	-0	-500
37.5833	0.0569877	0.0569877	0.0569877	30.6927	1000	-6.52749e-07	16.3533	16.3368	14.1733	14.1733	16.3533	16.3368	14.1733	16.3533	16.3368	521.085	-0	-500
37.6667	0.0569877	0.0569877	0.0569877	30.6927	1000	-6.52749e-07	16.3505	16.334	14.1708	14.1708	16.3505	16.334	14.1708	16.3505	16.334	520.993	-0	-500
37.75	0.0569877	0.0569877	0.0569877	30.6927	1000	-6.52749e-07	16.3477	16.3313	14.1683	14.1683	16.3477	16.3313	14.1683	16.3477	16.3313	520.903	-0	-500
37.8333	0.0569877	0.0569877	0.0569877	30.6927	1000	-6.52749e-07	16.3449	16.3285	14.1659	14.1659	16.3449	16.3285	14.1659	16.3449	16.3285	520.812	-0	-500
37.9167	0.0569877	0.0569877	0.0569877	30.6927	1000	-6.52749e-07	16.3421	16.3258	14.1634	14.1634	16.3421	16.3258	14.1634	16.3421	16.3258	520.722	-0	-500
38	0.0569877	0.0569877	0.0569877	30.6927	1000	-6.52749e-07	16.3393	16.3231	14.161	14.161	16.3393	16.3231	14.161	16.3393	16.3231	520.633	-0	-500
38.0833	0.0569877	0.0569877	0.0569877	30.6927	1000	-6.52749e-07	16.3365	16.3204	14.1585	14.1585	16.3365	16.3204	14.1585	16.3365	16.3204	520.544	-0	-500
38.1667	0.0569877	0.0569877	0.0569877	30.6927	1000	-6.52749e-07	16.3338	16.3177	14.1561	14.1561	16.3338	16.3177	14.1561	16.3338	16.3177	520.455	-0	-500
38.25	0.0569877	0.0569877	0.0569877	30.6927	1000	-6.52749e-07	16.331	16.315	14.1537	14.1537	16.331	16.315	14.1537	16.331	16.315	520.367	-0	-500
38.3333	0.0569877	0.0569877	0.0569877	30.6927	1000	-6.52749e-07	16.3283	16.3124	14.1513	14.1513	16.3283	16.3124	14.1513	16.3283	16.3124	520.279	-0	-500
38.4167	0.0569877	0.0569877	0.0569877	30.6927	1000	-6.52749e-07	16.3256	16.3097	14.149	14.149	16.3256	16.3097	14.149	16.3256	16.3097	520.191	-0	-500
38.5	0.0569877	0.0569877	0.0569877	30.6927	1000	-6.52749e-07	16.3229	16.3071	14.1466	14.1466	16.3229	16.3071	14.1466	16.3229	16.3071	520.104	-0	-500
38.5833	0.0569877	0.0569877	0.0569877	30.6927	1000	-6.52749e-07	16.3202	16.3045	14.1442	14.1442	16.3202	16.3045	14.1442	16.3202	16.3045	520.017	-0	-500
38.6667	0.0569877	0.0569877	0.0569877	30.6927	1000	-6.52749e-07	16.3175	16.3018	14.1419	14.1419	16.3175	16.3018	14.1419	16.3175	16.3018	519.93	-0	-500
38.75	0.0569877	0.0569877	0.0569877	30.6927	1000	-6.52749e-07	16.3148	16.2992	14.1395	14.1395	16.3148	16.2992	14.1395	16.3148	16.2992	519.844	-0	-500
38.8333	0.0569877	0.0569877	0.0569877	30.6927	1000	-6.52749e-07	16.3121	16.2966	14.1372	14.1372	16.3121	16.2966	14.1372	16.3121	16.2966	519.759	-0	-500
38.9167	0.0569877	0.0569877	0.0569877	30.6927	1000	-6.52749e-07	16.3095	16.2941	14.1349	14.1349	16.3095	16.2941	14.1349	16.3095	16.2941	519.673	-0	-500
39	0.0569877	0.0569877	0.0569877	30.6927	1000	-6.52749e-07	16.3069	16.2915	14.1326	14.1326	16.3069	16.2915	14.1326	16.3069	16.2915	519.588	-0	-500
39.0833	0.0569877	0.0569877	0.0569877	30.6927	1000	-6.52749e-07	16.3042	16.2889	14.1303	14.1303	16.3042	16.2889	14.1303	16.3042	16.2889	519.504	-0	-500
39.1667	0.0569877	0.0569877	0.0569877	30.6927	1000	-6.52749e-07	16.3016	16.2864	14.128	14.128	16.3016	16.2864	14.128	16.3016	16.2864	519.419	-0	-500
39.25	0.0569877	0.0569877	0.0569877	30.6927	1000	-6.52749e-07	16.299	16.2838	14.1257	14.1257	16.299	16.2838	14.1257	16.299	16.2838	519.335	-0	-500
39.3333	0.0569877	0.0569877	0.0569877	30.6927	1000	-6.52749e-07	16.2964	16.2813	14.1234	14.1234	16.2964	16.2813	14.1234	16.2964	16.2813	519.252	-0	-500
39.4167	0.0569877	0.0569877	0.0569877	30.6927	1000	-6.52749e-07	16.2938	16.2788	14.1211	14.1211	16.2938	16.2788	14.1211	16.2938	16.2788	519.169	-0	-500
39.5	0.0569877	0.0569877	0.0569877	30.6927	1000	-6.52749e-07	16.2913	16.2763	14.1189	14.1189	16.2913	16.2763	14.1189	16.2913	16.2763	519.086	-0	-500
39.5833	0.0569877	0.0569877	0.0569877	30.6927	1000	-6.52749e-07	16.2887	16.2738	14.1167	14.1167	16.2887	16.2738	14.1167	16.2887	16.2738	519.003	-0	-500
39.6667	0.0569877	0.0569877	0.0569877	30.6927	1000	-6.52749e-07	16.2862	16.2713	14.1144	14.1144	16.2862	16.2713	14.1144	16.2862	16.2713	518.921	-0	-500
39.75	0.0569877	0.0569877	0.0569877	30.6927	1000	-6.52749e-07	16.2836	16.2688	14.1122	14.1122	16.2836	16.2688	14.1122	16.2836	16.2688	518.84	-0	-500
39.8333	0.0569877	0.0569877	0.0569877	30.6927	1000	-6.52749e-07	16.2811	16.2664	14.11	14.11	16.2811	16.2664	14.11	16.2811	16.2664	518.758	-0	-500
39.9167	0.0569877	0.0569877	0.0569877	30.6927	1000	-6.52749e-07	16.2786	16.2639	14.1078	14.1078	16.2786	16.2639	14.1078	16.2786	16.2639	518.677	-0	-500
40	0.0569877	0.0569877	0.0569877	30.6927	1000	-6.52749e-07	16.2761	16.2615	14.1056	14.1056	16.2761	16.2615	14.1056	16.2761	16.2615	518.596	-0	-500
40.0833	0.0569877	0.0569877	0.0569877	30.6927	1000	-6.52749e-07	16.2736	16.259	14.1034	14.1034	16.2736	16.259	14.1034	16.2736	16.259	518.516	-0	-500
40.1667	0.0569877	0.0569877	0.0569877	30.6927	1000	-6.52749e-07	16.2711	16.2566	14.1012	14.1012	16.2711	16.2566	14.1012	16.2711	16.2566	518.436	-0	-500
40.25	0.0569877	0.0569877	0.0569877	30.6927	1000	-6.52749e-07	16.2686	16.2542	14.0991	14.0991	16.2686	16.2542	14.0991	16.2686	16.2542	518.356	-0	-500
40.3333	0.0569877	0.0569877	0.0569877	30.6927	1000	-6.52749e-07	16.2662	16.2518	14.0969	14.0969	16.2662	16.2518	14.0969	16.2662	16.2518	518.277	-0	-500
40.4167	0.0569877	0.0569877	0.0569877	30.6927	1000	-6.52749e-07	16.2637	16.2494	14.0947	14.0947	16.2637	16.2494	14.0947	16.2637	16.2494	518.198	-0	-500
40.5	0.0569877	0.0569877	0.0569877	30.6927	1000	-6.52749e-07	16.2613	16.247	14.0926	14.0926	16.2613	16.247	14.0926	16.2613	16.247	518.12	-0	-500
40.5833	0.0569877	0.0569877	0.0569877	30.6927	1000	-6.52749e-07	16.2588	16.2447	14.0905	14.0905	16.2588	16.2447	14.0905	16.2588	16.2447	518.041	-0	-500
40.6667	0.0569877	0.0569877	0.0569877	30.6927	1000	-6.52749e-07	16.2564	16.2423	14.0884	14.0884	16.2564	16.2423	14.0884	16.2564	16.2423	517.963	-0	-500
40.75	0.0569877	0.0569877	0.0569877	30.6927	1000	-6.52749e-07	16.254	16.24	14.0862	14.0862	16.254	16.24	14.0862	16.254	16.24	517.886	-0	-500
40.8333	0.0569877	0.0569877	0.0569877	30.6927	1000	-6.52749e-07	16.2516	16.2376	14.0841	14.0841	16.2516	16.2376	14.0841	16.2516	16.2376	517.808	-0	-500
40.9167	0.0569877	0.0569877	0.0569877	30.6927	1000	-6.52749e-07	16.2492	16.2353	14.0821	14.0821	16.2492	16.2353	14.0821	16.2492	16.2353	517.731	-0	-500
41	0.0569877	0.0569877	0.0569877	30.6927	1000	-6.52749e-07	16.2468	16.233	14.08	14.08	16.2468	16.233	14.08	16.2468	16.233	517.655	-0	-500
41.0833	0.0569877	0.0569877	0.0569877	30.6927	1000	-6.52749e-07	16.2445	16.2307	14.0779	14.0779	16.2445	16.2307	14.0779	16.2445	16.2307	517.579	-0	-500
41.1667	0.0569877	0.0569877	0.0569877	30.6927	1000	-6.52749e-07	16.2421	16.2284	14.0758	14.0758	16.2421	16.2284	14.0758	16.2421	16.2284	517.503	-0	-500
41.25	0.0569877	0.0569877	0.0569877	30.6927	1000	-6.52749e-07	16.2398	16.2261	14.0738	14.0738	16.2398	16.2261	14.0738	16.2398	16.2261	517.427	-0	-500
41.3333	0.0569877	0.0569877	0.0569877	30.6927	1000	-6.52749e-07	16.2374	16.2238	14.0717	14.0717	16.2374	16.2238	14.0717	16.2374	16.2238	517.352	-0	-500
41.4167	0.0569877	0.0569877	0.0569877	30.6927	1000	-6.52749e-07	16.2351	16.2215	14.0697	14.0697	16.2351	16.2215	14.0697	16.2351	16.2215	517.277	-0	-500
41.5	0.0569877	0.0569877	0.0569877	30.6927	1000	-6.52749e-07	16.2328	16.2193	14.0677	14.0677	16.2328	16.2193	14.0677	16.2328	16.2193	517.202	-0	-500
41.5833	0.0569877	0.0569877	0.0569877	30.6927	1000	-6.52749e-07	16.2305	16.217	14.0656	14.0656	16.2305	16.217	14.0656	16.2305	16.217	517.128	-0	-500
41.6667	0.0569877	0.0569877	0.0569877	30.6927	1000	-6.52749e-07	16.2282	16.2148	14.0636	14.0636	16.2282	16.2148	14.0636	16.2282	16.2148	517.054	-0	-500
41.75	0.0569877	0.0569877	0.0569877	30.6927	1000	-6.52749e-07	16.2259	16.2126	14.0616	14.0616	16.2259	16.2126	14.0616	16.2259	16.2126	516.98	-0	-500
41.8333	0.0569877	0.0569877	0.0569877	30.6927	1000	-6.52749e-07	16.2236	16.2103	14.0596	14.0596	16.2236	16.2103	14.0596	16.2236	16.2103	516.907	-0	-500
41.9167	0.0569877	0.0569877	0.0569877	30.6927	1000	-6.52749e-07	16.2213	16.2081	14.0576	14.0576	16.2213	16.2081	14.0576	16.2213	16.2081	516.834	-0	-500
42	0.0569877	0.0569877	0.0569877	30.6927	1000	-6.52749e-07	16.2191	16.2059	14.0557	14.0557	16.2191	16.2059	14.0557	16.2191	16.2059	516.761	-0	-500
42.0833	0.0569877	0.0569877	0.0569877	30.6927	1000	-6.52749e-07	16.2168	16.2037	14.0537	14.0537	16.2168	16.2037	14.0537	16.2168	16.2037	516.689	-0	-500
42.1667	0.0569877	0.0569877	0.0569877	30.6927	1000	-6.52749e-07	16.2146	16.2016	14.0517	14.0517	16.2146	16.2016	14.0517	16.2146	16.2016	516.616	-0	-500
42.25	0.0569877	0.0569877	0.0569877	30.6927	1000	-6.52749e-07	16.2124	16.1994	14.0498	14.0498	16.2124	16.1994	14.0498	16.2124	16.1994	516.545	-0	-500
42.3333	0.0569877	0.0569877	0.0569877	30.6927	1000	-6.52749e-07	16.2102	16.1972	14.0478	14.0478	16.2102	16.1972	14.0478	16.2102	16.1972	516.473	-0	-500
42.4167	0.0569877	0.0569877	0.0569877	30.6927	1000	-6.52749e-07	16.2079	16.1951	14.0459	14.0459	16.2079	16.1951	14.0459	16.2079	16.1951	516.402	-0	-500
42.5	0.0569877	0.0569877	0.0569877	30.6927	1000	-6.52749e-07	16.2057	16.1929	14.044	14.044	16.2057	16.1929	14.044	16.2057	16.1929	516.331	-0	-500
42.5833	0.0569877	0.0569877	0.0569877	30.6927	1000	-6.52749e-07	16.2036	16.1908	14.042	14.042	16.2036	16.1908	14.042	16.2036	16.1908	516.261	-0	-500
42.6667	0.0569877	0.0569877	0.0569877	30.6927	1000	-6.52749e-07	16.2014	16.1887	14.0401	14.0401	16.2014	16.1887	14.0401	16.2014	16.1887	516.19	-0	-500
42.75	0.0569877	0.0569877	0.0569877	30.6927	1000	-6.52749e-07	16.1992	16.1866	14.0382	14.0382	16.1992	16.1866	14.0382	16.1992	16.1866	516.12	-0	-500
42.8333	0.0569877	0.0569877	0.0569877	30.6927	1000	-6.52749e-07	16.197	16.1844	14.0363	14.0363	16.197	16.1844	14.0363	16.197	16.1844	516.051	-0	-500
42.9167	0.0569877	0.0569877	0.0569877	30.6927	1000	-6.52749e-07	16.1949	16.1823	14.0345	14.0345	16.1949	16.1823	14.0345	16.1949	16.1823	515.981	-0	-500
43	0.0569877	0.0569877	0.0569877	30.6927	1000	-6.52749e-07	16.1927	16.1803	14.0326	14.0326	16.1927	16.1803	14.0326	16.1927	16.1803	515.912	-0	-500
43.0833	0.0569877	0.0569877	0.0569877	30.6927	1000	-6.52749e-07	16.1906	16.1782	14.0307	14.0307	16.1906	16.1782	14.0307	16.1906	16.1782	515.844	-0	-500
43.1667	0.0569877	0.0569877	0.0569877	30.6927	1000	-6.52749e-07	16.1885	16.1761	14.0288	14.0288	16.1885	16.1761	14.0288	16.1885	16.1761	515.775	-0	-500
43.25	0.0569877	0.0569877	0.0569877	30.6927	1000	-6.52749e-07	16.1864	16.174	14.027	14.027	16.1864	16.174	14.027	16.1864	16.174	515.707	-0	-500
43.3333	0.0569877	0.0569877	0.0569877	30.6927	1000	-6.52749e-07	16.1843	16.172	14.0251	14.0251	16.1843	16.172	14.0251	16.1843	16.172	515.639	-0	-500
43.4167	0.0569877	0.0569877	0.0569877	30.6927	1000	-6.52749e-07	16.1822	16.1699	14.0233	14.0233	16.1822	16.1699	14.0233	16.1822	16.1699	515.571	-0	-500
43.5	0.0569877	0.0569877	0.0569877	30.6927	1000	-6.52749e-07	16.1801	16.1679	14.0215	14.0215	16.1801	16.1679	14.0215	16.1801	16.1679	515.504	-0	-500
43.5833	0.0569877	0.0569877	0.0569877	30.6927	1000	-6.52749e-07	16.178	16.1659	14.0197	14.0197	16.178	16.1659	14.0197	16.178	16.1659	515.437	-0	-500
43.6667	0.0569877	0.0569877	0.0569877	30.6927	1000	-6.52749e-07	16.1759	16.1639	14.0178	14.0178	16.1759	16.1639	14.0178	16.1759	16.1639	515.371	-0	-500
43.75	0.0569877	0.0569877	0.0569877	30.6927	1000	-6.52749e-07	16.1739	16.1619	14.016	14.016	16.1739	16.1619	14.016	16.1739	16.1619	515.304	-0	-500
43.8333	0.0569877	0.0569877	0.0569877	30.6927	1000	-6.52749e-07	16.1718	16.1599	14.0142	14.0142	16.1718	16.1599	14.0142	16.1718	16.1599	515.238	-0	-500
43.9167	0.0569877	0.0569877	0.0569877	30.6927	1000	-6.52749e-07	16.1698	16.1579	14.0124	14.0124	16.1698	16.1579	14.0124	16.1698	16.1579	515.172	-0	-500
44	0.0569877	0.0569877	0.0569877	30.6927	1000	-6.52749e-07	16.1677	16.1559	14.0107	14.0107	16.1677	16.1559	14.0107	16.1677	16.1559	515.107	-0	-500
44.0833	0.0569877	0.0569877	0.0569877	30.6927	1000	-6.52749e-07	16.1657	16.1539	14.0089	14.0089	16.1657	16.1539	14.0089	16.1657	16.1539	515.041	-0	-500
44.1667	0.0569877	0.0569877	0.0569877	30.6927	1000	-6.52749e-07	16.1637	16.1519	14.0071	14.0071	16.1637	16.1519	14.0071	16.1637	16.1519	514.976	-0	-500
44.25	0.0569877	0.0569877	0.0569877	30.6927	1000	-6.52749e-07	16.1617	16.15	14.0054	14.0054	16.1617	16.15	14.0054	16.1617	16.15	514.912	-0	-500
44.3333	0.0569877	0.0569877	0.0569877	30.6927	1000	-6.52749e-07	16.1597	16.148	14.0036	14.0036	16.1597	16.148	14.0036	16.1597	16.148	514.847	-0	-500
44.4167	0.0569877	0.0569877	0.0569877	30.6927	1000	-6.52749e-07	16.1577	16.1461	14.0019	14.0019	16.1577	16.1461	14.0019	16.1577	16.1461	514.783	-0	-500
44.5	0.0569877	0.0569877	0.0569877	30.6927	1000	-6.52749e-07	16.1557	16.1442	14.0001	14.0001	16.1557	16.1442	14.0001	16.1557	16.1442	514.719	-0	-500
44.5833	0.0569877	0.0569877	0.0569877	30.6927	1000	-6.52749e-07	16.1537	16.1422	13.9984	13.9984	16.1537	16.1422	13.9984	16.1537	16.1422	514.656	-0	-500
44.6667	0.0569877	0.0569877	0.0569877	30.6927	1000	-6.52749e-07	16.1518	16.1403	13.9967	13.9967	16.1518	16.1403	13.9967	16.1518	16.1403	514.592	-0	-500
44.75	0.0569877	0.0569877	0.0569877	30.6927	1000	-6.52749e-07	16.1498	16.1384	13.995	13.995	16.1498	16.1384	13.995	16.1498	16.1384	514.529	-0	-500
44.8333	0.0569877	0.0569877	0.0569877	30.6927	1000	-6.52749e-07	16.1479	16.1365	13.9932	13.9932	16.1479	16.1365	13.9932	16.1479	16.1365	514.466	-0	-500
44.9167	0.0569877	0.0569877	0.0569877	30.6927	1000	-6.52749e-07	16.1459	16.1346	13.9915	13.9915	16.1459	16.1346	13.9915	16.1459	16.1346	514.404	-0	-500
45	0.0569877	0.0569877	0.0569877	30.6927	1000	-6.52749e-07	16.144	16.1327	13.9899	13.9899	16.144	16.1327	13.9899	16.144	16.1327	514.342	-0	-500
45.0833	0.0569877	0.0569877	0.0569877	30.6927	1000	-6.52749e-07	16.1421	16.1309	13.9882	13.9882	16.1421	16.1309	13.9882	16.1421	16.1309	514.28	-0	-500
45.1667	0.0569877	0.0569877	0.0569877	30.6927	1000	-6.52749e-07	16.1401	16.129	13.9865	13.9865	16.1401	16.129	13.9865	16.1401	16.129	514.218	-0	-500
45.25	0.0569877	0.0569877	0.0569877	30.6927	1000	-6.52749e-07	16.1382	16.1271	13.9848	13.9848	16.1382	16.1271	13.9848	16.1382	16.1271	514.157	-0	-500
45.3333	0.0569877	0.0569877	0.0569877	30.6927	1000	-6.52749e-07	16.1363	16.1253	13.9832	13.9832	16.1363	16.1253	13.9832	16.1363	16.1253	514.095	-0	-500
45.4167	0.0569877	0.0569877	0.0569877	30.6927	1000	-6.52749e-07	16.1345	16.1234	13.9815	13.9815	16.1345	16.1234	13.9815	16.1345	16.1234	514.035	-0	-500
45.5	0.0569877	0.0569877	0.0569877	30.6927	1000	-6.52749e-07	16.1326	16.1216	13.9799	13.9799	16.1326	16.1216	13.9799	16.1326	16.1216	513.974	-0	-500
45.5833	0.0569877	0.0569877	0.0569877	30.6927	1000	-6.52749e-07	16.1307	16.1198	13.9782	13.9782	16.1307	16.1198	13.9782	16.1307	16.1198	513.914	-0	-500
45.6667	0.0569877	0.0569877	0.0569877	30.6927	1000	-6.52749e-07	16.1288	16.118	13.9766	13.9766	16.1288	16.118	13.9766	16.1288	16.118	513.853	-0	-500
45.75	0.0569877	0.0569877	0.0569877	30.6927	1000	-6.52749e-07	16.127	16.1161	13.9749	13.9749	16.127	16.1161	13.9749	16.127	16.1161	513.794	-0	-500
45.8333	0.0569877	0.0569877	0.0569877	30.6927	1000	-6.52749e-07	16.1251	16.1143	13.9733	13.9733	16.1251	16.1143	13.9733	16.1251	16.1143	513.734	-0	-500
45.9167	0.0569877	0.0569877	0.0569877	30.6927	1000	-6.52749e-07	16.1233	16.1125	13.9717	13.9717	16.1233	16.1125	13.9717	16.1233	16.1125	513.675	-0	-500
46	0.0569877	0.0569877	0.0569877	30.6927	1000	-6.52749e-07	16.1214	16.1108	13.9701	13.9701	16.1214	16.1108	13.9701	16.1214	16.1108	513.616	-0	-500
46.0833	0.0569877	0.0569877	0.0569877	30.6927	1000	-6.52749e-07	16.1196	16.109	13.9685	13.9685	16.1196	16.109	13.9685	16.1196	16.109	513.557	-0	-500
46.1667	0.0569877	0.0569877	0.0569877	30.6927	1000	-6.52749e-07	16.1178	16.1072	13.9669	13.9669	16.1178	16.1072	13.9669	16.1178	16.1072	513.498	-0	-500
46.25	0.0569877	0.0569877	0.0569877	30.6927	1000	-6.52749e-07	16.116	16.1054	13.9653	13.9653	16.116	16.1054	13.9653	16.116	16.1054	513.44	-0	-500
46.3333	0.0569877	0.0569877	0.0569877	30.6927	1000	-6.52749e-07	16.1142	16.1037	13.9637	13.9637	16.1142	16.1037	13.9637	16.1142	16.1037	513.382	-0	-500
46.4167	0.0569877	0.0569877	0.0569877	30.6927	1000	-6.52749e-07	16.1124	16.1019	13.9622	13.9622	16.1124	16.1019	13.9622	16.1124	16.1019	513.324	-0	-500
46.5	0.0569877	0.0569877	0.0569877	30.6927	1000	-6.52749e-07	16.1106	16.1002	13.9606	13.9606	16.1106	16.1002	13.9606	16.1106	16.1002	513.266	-0	-500
46.5833	0.0569877	0.0569877	0.0569877	30.6927	1000	-6.52749e-07	16.1088	16.0985	13.959	13.959	16.1088	16.0985	13.959	16.1088	16.0985	513.209	-0	-500
46.6667	0.0569877	0.0569877	0.0569877	30.6927	1000	-6.52749e-07	16.1071	16.0967	13.9575	13.9575	16.1071	16.0967	13.9575	16.1071	16.0967	513.152	-0	-500
46.75	0.0569877	0.0569877	0.0569877	30.6927	1000	-6.52749e-07	16.1053	16.095	13.9559	13.9559	16.1053	16.095	13.9559	16.1053	16.095	513.095	-0	-500
46.8333	0.0569877	0.0569877	0.0569877	30.6927	1000	-6.52749e-07	16.1035	16.0933	13.9544	13.9544	16.1035	16.0933	13.9544	16.1035	16.0933	513.039	-0	-500
46.9167	0.0569877	0.0569877	0.0569877	30.6927	1000	-6.52749e-07	16.1018	16.0916	13.9529	13.9529	16.1018	16.0916	13.9529	16.1018	16.0916	512.982	-0	-500
47	0.0569877	0.0569877	0.0569877	30.6927	1000	-6.52749e-07	16.1	16.0899	13.9514	13.9514	16.1	16.0899	13.9514	16.1	16.0899	512.926	-0	-500
47.0833	0.0569877	0.0569877	0.0569877	30.6927	1000	-6.52749e-07	16.0983	16.0882	13.9498	13.9498	16.0983	16.0882	13.9498	16.0983	16.0882	512.87	-0	-500
47.1667	0.0569877	0.0569877	0.0569877	30.6927	1000	-6.52749e-07	16.0966	16.0865	13.9483	13.9483	16.0966	16.0865	13.9483	16.0966	16.0865	512.815	-0	-500
47.25	0.0569877	0.0569877	0.0569877	30.6927	1000	-6.52749e-07	16.0949	16.0849	13.9468	13.9468	16.0949	16.0849	13.9468	16.0949	16.0849	512.759	-0	-500
47.3333	0.0569877	0.0569877	0.0569877	30.6927	1000	-6.52749e-07	16.0932	16.0832	13.9453	13.9453	16.0932	16.0832	13.9453	16.0932	16.0832	512.704	-0	-500
47.4167	0.0569877	0.0569877	0.0569877	30.6927	1000	-6.52749e-07	16.0914	16.0815	13.9438	13.9438	16.0914	16.0815	13.9438	16.0914	16.0815	512.649	-0	-500
47.5	0.0569877	0.0569877	0.0569877	30.6927	1000	-6.52749e-07	16.0898	16.0799	13.9423	13.9423	16.0898	16.0799	13.9423	16.0898	16.0799	512.595	-0	-500
47.5833	0.0569877	0.0569877	0.0569877	30.6927	1000	-6.52749e-07	16.0881	16.0782	13.9409	13.9409	16.0881	16.0782	13.9409	16.0881	16.0782	512.54	-0	-500
47.6667	0.0569877	0.0569877	0.0569877	30.6927	1000	-6.52749e-07	16.0864	16.0766	13.9394	13.9394	16.0864	16.0766	13.9394	16.0864	16.0766	512.486	-0	-500
47.75	0.0569877	0.0569877	0.0569877	30.6927	1000	-6.52749e-07	16.0847	16.075	13.9379	13.9379	16.0847	16.075	13.9379	16.0847	16.075	512.432	-0	-500
47.8333	0.0569877	0.0569877	0.0569877	30.6927	1000	-6.52749e-07	16.083	16.0733	13.9365	13.9365	16.083	16.0733	13.9365	16.083	16.0733	512.378	-0	-500
47.9167	0.0569877	0.0569877	0.0569877	30.6927	1000	-6.52749e-07	16.0814	16.0717	13.935	13.935	16.0814	16.0717	13.935	16.0814	16.0717	512.325	-0	-500
48	0.0569877	0.0569877	0.0569877	30.6927	1000	-6.52749e-07	16.0797	16.0701	13.9336	13.9336	16.0797	16.0701	13.9336	16.0797	16.0701	512.272	-0	-500
