Time [h]	NetworkElement(id=101).FluidMassFlux [kg/s]	NetworkElement(id=201).FluidMassFlux [kg/s]	NetworkElement(id=301).FluidMassFlux [kg/s]	NetworkElement(id=101).OutletNodePressure [Pa]	NetworkElement(id=201).OutletNodePressure [Pa]	NetworkElement(id=301).OutletNodePressure [Pa]	NetworkElement(id=101).InletNodeTemperature [C]	NetworkElement(id=201).InletNodeTemperature [C]	NetworkElement(id=301).InletNodeTemperature [C]	NetworkElement(id=101).OutletNodeTemperature [C]	NetworkElement(id=201).OutletNodeTemperature [C]	NetworkElement(id=301).OutletNodeTemperature [C]	NetworkElement(id=101).FluidTemperature [C]	NetworkElement(id=201).FluidTemperature [C]	NetworkElement(id=301).FluidTemperature [C]	NetworkElement(id=101).FlowElementHeatLoss [W]	NetworkElement(id=201).FlowElementHeatLoss [W]	NetworkElement(id=301).FlowElementHeatLoss [W]
0	0.0569877	0.0569877	0.0569877	30.6927	1000	-6.52749e-07	20	20	20	20	20	20	20	20	20	859.74	-0	-500
0.00277778	0.0569877	0.0569877	0.0569877	30.6927	1000	-6.52749e-07	20	20.0029	19.9609	19.9609	20	20.0029	19.9609	20	20.0029	858.061	-0	-500
0.00555556	0.0569877	0.0569877	0.0569877	30.6927	1000	-6.52749e-07	20.0001	20.0058	19.922	19.922	20.0001	20.0058	19.922	20.0001	20.0058	856.386	-0	-500
0.00833333	0.0569877	0.0569877	0.0569877	30.6927	1000	-6.52749e-07	20.0001	20.0085	19.8844	19.8844	20.0001	20.0085	19.8844	20.0001	20.0085	854.771	-0	-500
0.0111111	0.0569877	0.0569877	0.0569877	30.6927	1000	-6.52749e-07	20.0002	20.0111	19.8471	19.8471	20.0002	20.0111	19.8471	20.0002	20.0111	853.169	-0	-500
0.0138889	0.0569877	0.0569877	0.0569877	30.6927	1000	-6.52749e-07	20.0003	20.0138	19.8102	19.8102	20.0003	20.0138	19.8102	20.0003	20.0138	851.581	-0	-500
0.0166667	0.0569877	0.0569877	0.0569877	30.6927	1000	-6.52749e-07	20.0004	20.0164	19.7736	19.7736	20.0004	20.0164	19.7736	20.0004	20.0164	850.007	-0	-500
0.0194444	0.0569877	0.0569877	0.0569877	30.6927	1000	-6.52749e-07	20.0005	20.0189	19.7373	19.7373	20.0005	20.0189	19.7373	20.0005	20.0189	848.447	-0	-500
0.0222222	0.0569877	0.0569877	0.0569877	30.6927	1000	-6.52749e-07	20.0007	20.0214	19.7013	19.7013	20.0007	20.0214	19.7013	20.0007	20.0214	846.9	-0	-500
0.025	0.0569877	0.0569877	0.0569877	30.6927	1000	-6.52749e-07	20.0008	20.0239	19.6657	19.6657	20.0008	20.0239	19.6657	20.0008	20.0239	845.367	-0	-500
0.0277778	0.0569877	0.0569877	0.0569877	30.6927	1000	-6.52749e-07	20.0009	20.0264	19.6303	19.6303	20.0009	20.0264	19.6303	20.0009	20.0264	843.848	-0	-500
0.0305556	0.0569877	0.0569877	0.0569877	30.6927	1000	-6.52749e-07	20.0011	20.0288	19.5956	19.5956	20.0011	20.0288	19.5956	20.0011	20.0288	842.357	-0	-500
0.0333333	0.0569877	0.0569877	0.0569877	30.6927	1000	-6.52749e-07	20.0013	20.0311	19.5614	19.5614	20.0013	20.0311	19.5614	20.0013	20.0311	840.884	-0	-500
0.0361111	0.0569877	0.0569877	0.0569877	30.6927	1000	-6.52749e-07	20.0014	20.0334	19.5275	19.5275	20.0014	20.0334	19.5275	20.0014	20.0334	839.428	-0	-500
0.0388889	0.0569877	0.0569877	0.0569877	30.6927	1000	-6.52749e-07	20.0016	20.0356	19.494	19.494	20.0016	20.0356	19.494	20.0016	20.0356	837.989	-0	-500
0.0416667	0.0569877	0.0569877	0.0569877	30.6927	1000	-6.52749e-07	20.0018	20.0378	19.4609	19.4609	20.0018	20.0378	19.4609	20.0018	20.0378	836.568	-0	-500
0.0444444	0.0569877	0.0569877	0.0569877	30.6927	1000	-6.52749e-07	20.002	20.0399	19.4283	19.4283	20.002	20.0399	19.4283	20.002	20.0399	835.163	-0	-500
0.0472222	0.0569877	0.0569877	0.0569877	30.6927	1000	-6.52749e-07	20.0022	20.042	19.396	19.396	20.0022	20.042	19.396	20.0022	20.042	833.775	-0	-500
0.05	0.0569877	0.0569877	0.0569877	30.6927	1000	-6.52749e-07	20.0025	20.0441	19.3641	19.3641	20.0025	20.0441	19.3641	20.0025	20.0441	832.405	-0	-500
0.0527778	0.0569877	0.0569877	0.0569877	30.6927	1000	-6.52749e-07	20.0027	20.0461	19.3326	19.3326	20.0027	20.0461	19.3326	20.0027	20.0461	831.051	-0	-500
0.0555556	0.0569877	0.0569877	0.0569877	30.6927	1000	-6.52749e-07	20.003	20.048	19.3015	19.3015	20.003	20.048	19.3015	20.003	20.048	829.715	-0	-500
0.0583333	0.0569877	0.0569877	0.0569877	30.6927	1000	-6.52749e-07	20.0032	20.0499	19.2708	19.2708	20.0032	20.0499	19.2708	20.0032	20.0499	828.395	-0	-500
0.0611111	0.0569877	0.0569877	0.0569877	30.6927	1000	-6.52749e-07	20.0035	20.0518	19.2405	19.2405	20.0035	20.0518	19.2405	20.0035	20.0518	827.093	-0	-500
0.0638889	0.0569877	0.0569877	0.0569877	30.6927	1000	-6.52749e-07	20.0038	20.0536	19.2106	19.2106	20.0038	20.0536	19.2106	20.0038	20.0536	825.807	-0	-500
0.0666667	0.0569877	0.0569877	0.0569877	30.6927	1000	-6.52749e-07	20.004	20.0554	19.1811	19.1811	20.004	20.0554	19.1811	20.004	20.0554	824.539	-0	-500
0.0694444	0.0569877	0.0569877	0.0569877	30.6927	1000	-6.52749e-07	20.0043	20.0571	19.152	19.152	20.0043	20.0571	19.152	20.0043	20.0571	823.288	-0	-500
0.0722222	0.0569877	0.0569877	0.0569877	30.6927	1000	-6.52749e-07	20.0046	20.0588	19.1233	19.1233	20.0046	20.0588	19.1233	20.0046	20.0588	822.054	-0	-500
0.075	0.0569877	0.0569877	0.0569877	30.6927	1000	-6.52749e-07	20.0049	20.0605	19.0948	19.0948	20.0049	20.0605	19.0948	20.0049	20.0605	820.829	-0	-500
0.0777778	0.0569877	0.0569877	0.0569877	30.6927	1000	-6.52749e-07	20.0053	20.0621	19.0667	19.0667	20.0053	20.0621	19.0667	20.0053	20.0621	819.618	-0	-500
0.0805556	0.0569877	0.0569877	0.0569877	30.6927	1000	-6.52749e-07	20.0056	20.0637	19.0388	19.0388	20.0056	20.0637	19.0388	20.0056	20.0637	818.423	-0	-500
0.0833333	0.0569877	0.0569877	0.0569877	30.6927	1000	-6.52749e-07	20.0059	20.0652	19.0114	19.0114	20.0059	20.0652	19.0114	20.0059	20.0652	817.243	-0	-500
0.0861111	0.0569877	0.0569877	0.0569877	30.6927	1000	-6.52749e-07	20.0062	20.0667	18.9843	18.9843	20.0062	20.0667	18.9843	20.0062	20.0667	816.079	-0	-500
0.0888889	0.0569877	0.0569877	0.0569877	30.6927	1000	-6.52749e-07	20.0065	20.0682	18.9576	18.9576	20.0065	20.0682	18.9576	20.0065	20.0682	814.931	-0	-500
0.0916667	0.0569877	0.0569877	0.0569877	30.6927	1000	-6.52749e-07	20.0069	20.0696	18.9313	18.9313	20.0069	20.0696	18.9313	20.0069	20.0696	813.798	-0	-500
0.0944444	0.0569877	0.0569877	0.0569877	30.6927	1000	-6.52749e-07	20.0072	20.071	18.9053	18.9053	20.0072	20.071	18.9053	20.0072	20.071	812.681	-0	-500
0.0972222	0.0569877	0.0569877	0.0569877	30.6927	1000	-6.52749e-07	20.0076	20.0723	18.8796	18.8796	20.0076	20.0723	18.8796	20.0076	20.0723	811.579	-0	-500
0.1	0.0569877	0.0569877	0.0569877	30.6927	1000	-6.52749e-07	20.008	20.0736	18.8544	18.8544	20.008	20.0736	18.8544	20.008	20.0736	810.493	-0	-500
0.102778	0.0569877	0.0569877	0.0569877	30.6927	1000	-6.52749e-07	20.0083	20.0749	18.8295	18.8295	20.0083	20.0749	18.8295	20.0083	20.0749	809.423	-0	-500
0.105556	0.0569877	0.0569877	0.0569877	30.6927	1000	-6.52749e-07	20.0087	20.0761	18.805	18.805	20.0087	20.0761	18.805	20.0087	20.0761	808.369	-0	-500
0.108333	0.0569877	0.0569877	0.0569877	30.6927	1000	-6.52749e-07	20.0091	20.0772	18.7808	18.7808	20.0091	20.0772	18.7808	20.0091	20.0772	807.33	-0	-500
0.111111	0.0569877	0.0569877	0.0569877	30.6927	1000	-6.52749e-07	20.0095	20.0784	18.7568	18.7568	20.0095	20.0784	18.7568	20.0095	20.0784	806.297	-0	-500
0.113889	0.0569877	0.0569877	0.0569877	30.6927	1000	-6.52749e-07	20.0098	20.0795	18.733	18.733	20.0098	20.0795	18.733	20.0098	20.0795	805.274	-0	-500
0.116667	0.0569877	0.0569877	0.0569877	30.6927	1000	-6.52749e-07	20.0102	20.0806	18.7095	18.7095	20.0102	20.0806	18.7095	20.0102	20.0806	804.264	-0	-500
0.119444	0.0569877	0.0569877	0.0569877	30.6927	1000	-6.52749e-07	20.0106	20.0817	18.6863	18.6863	20.0106	20.0817	18.6863	20.0106	20.0817	803.268	-0	-500
0.122222	0.0569877	0.0569877	0.0569877	30.6927	1000	-6.52749e-07	20.011	20.0827	18.6635	18.6635	20.011	20.0827	18.6635	20.011	20.0827	802.286	-0	-500
0.125	0.0569877	0.0569877	0.0569877	30.6927	1000	-6.52749e-07	20.0114	20.0837	18.6409	18.6409	20.0114	20.0837	18.6409	20.0114	20.0837	801.318	-0	-500
0.127778	0.0569877	0.0569877	0.0569877	30.6927	1000	-6.52749e-07	20.0118	20.0846	18.6187	18.6187	20.0118	20.0846	18.6187	20.0118	20.0846	800.363	-0	-500
0.130556	0.0569877	0.0569877	0.0569877	30.6927	1000	-6.52749e-07	20.0122	20.0856	18.5968	18.5968	20.0122	20.0856	18.5968	20.0122	20.0856	799.421	-0	-500
0.133333	0.0569877	0.0569877	0.0569877	30.6927	1000	-6.52749e-07	20.0126	20.0864	18.5752	18.5752	20.0126	20.0864	18.5752	20.0126	20.0864	798.494	-0	-500
0.136111	0.0569877	0.0569877	0.0569877	30.6927	1000	-6.52749e-07	20.013	20.0873	18.554	18.554	20.013	20.0873	18.554	20.013	20.0873	797.58	-0	-500
0.138889	0.0569877	0.0569877	0.0569877	30.6927	1000	-6.52749e-07	20.0134	20.0881	18.533	18.533	20.0134	20.0881	18.533	20.0134	20.0881	796.679	-0	-500
0.141667	0.0569877	0.0569877	0.0569877	30.6927	1000	-6.52749e-07	20.0139	20.0889	18.5124	18.5124	20.0139	20.0889	18.5124	20.0139	20.0889	795.793	-0	-500
0.144444	0.0569877	0.0569877	0.0569877	30.6927	1000	-6.52749e-07	20.0143	20.0896	18.4921	18.4921	20.0143	20.0896	18.4921	20.0143	20.0896	794.92	-0	-500
0.147222	0.0569877	0.0569877	0.0569877	30.6927	1000	-6.52749e-07	20.0147	20.0903	18.4719	18.4719	20.0147	20.0903	18.4719	20.0147	20.0903	794.051	-0	-500
0.15	0.0569877	0.0569877	0.0569877	30.6927	1000	-6.52749e-07	20.0151	20.091	18.4519	18.4519	20.0151	20.091	18.4519	20.0151	20.091	793.19	-0	-500
0.152778	0.0569877	0.0569877	0.0569877	30.6927	1000	-6.52749e-07	20.0155	20.0917	18.4321	18.4321	20.0155	20.0917	18.4321	20.0155	20.0917	792.341	-0	-500
0.155556	0.0569877	0.0569877	0.0569877	30.6927	1000	-6.52749e-07	20.016	20.0923	18.4126	18.4126	20.016	20.0923	18.4126	20.016	20.0923	791.503	-0	-500
0.158333	0.0569877	0.0569877	0.0569877	30.6927	1000	-6.52749e-07	20.0164	20.093	18.3934	18.3934	20.0164	20.093	18.3934	20.0164	20.093	790.677	-0	-500
0.161111	0.0569877	0.0569877	0.0569877	30.6927	1000	-6.52749e-07	20.0168	20.0936	18.3745	18.3745	20.0168	20.0936	18.3745	20.0168	20.0936	789.863	-0	-500
0.163889	0.0569877	0.0569877	0.0569877	30.6927	1000	-6.52749e-07	20.0172	20.0941	18.3558	18.3558	20.0172	20.0941	18.3558	20.0172	20.0941	789.06	-0	-500
0.166667	0.0569877	0.0569877	0.0569877	30.6927	1000	-6.52749e-07	20.0177	20.0946	18.3374	18.3374	20.0177	20.0946	18.3374	20.0177	20.0946	788.269	-0	-500
0.169444	0.0569877	0.0569877	0.0569877	30.6927	1000	-6.52749e-07	20.0181	20.0951	18.3192	18.3192	20.0181	20.0951	18.3192	20.0181	20.0951	787.489	-0	-500
0.172222	0.0569877	0.0569877	0.0569877	30.6927	1000	-6.52749e-07	20.0185	20.0956	18.3014	18.3014	20.0185	20.0956	18.3014	20.0185	20.0956	786.722	-0	-500
0.175	0.0569877	0.0569877	0.0569877	30.6927	1000	-6.52749e-07	20.019	20.096	18.2838	18.2838	20.019	20.096	18.2838	20.019	20.096	785.965	-0	-500
0.177778	0.0569877	0.0569877	0.0569877	30.6927	1000	-6.52749e-07	20.0194	20.0964	18.2665	18.2665	20.0194	20.0964	18.2665	20.0194	20.0964	785.221	-0	-500
0.180556	0.0569877	0.0569877	0.0569877	30.6927	1000	-6.52749e-07	20.0198	20.0968	18.2494	18.2494	20.0198	20.0968	18.2494	20.0198	20.0968	784.488	-0	-500
0.183333	0.0569877	0.0569877	0.0569877	30.6927	1000	-6.52749e-07	20.0203	20.0972	18.2325	18.2325	20.0203	20.0972	18.2325	20.0203	20.0972	783.76	-0	-500
0.186111	0.0569877	0.0569877	0.0569877	30.6927	1000	-6.52749e-07	20.0207	20.0975	18.2157	18.2157	20.0207	20.0975	18.2157	20.0207	20.0975	783.038	-0	-500
0.188889	0.0569877	0.0569877	0.0569877	30.6927	1000	-6.52749e-07	20.0211	20.0979	18.1991	18.1991	20.0211	20.0979	18.1991	20.0211	20.0979	782.326	-0	-500
0.191667	0.0569877	0.0569877	0.0569877	30.6927	1000	-6.52749e-07	20.0216	20.0982	18.1828	18.1828	20.0216	20.0982	18.1828	20.0216	20.0982	781.623	-0	-500
0.194444	0.0569877	0.0569877	0.0569877	30.6927	1000	-6.52749e-07	20.022	20.0984	18.1667	18.1667	20.022	20.0984	18.1667	20.022	20.0984	780.93	-0	-500
0.197222	0.0569877	0.0569877	0.0569877	30.6927	1000	-6.52749e-07	20.0224	20.0987	18.1507	18.1507	20.0224	20.0987	18.1507	20.0224	20.0987	780.246	-0	-500
0.2	0.0569877	0.0569877	0.0569877	30.6927	1000	-6.52749e-07	20.0228	20.0989	18.1351	18.1351	20.0228	20.0989	18.1351	20.0228	20.0989	779.572	-0	-500
0.202778	0.0569877	0.0569877	0.0569877	30.6927	1000	-6.52749e-07	20.0233	20.0991	18.1196	18.1196	20.0233	20.0991	18.1196	20.0233	20.0991	778.907	-0	-500
0.205556	0.0569877	0.0569877	0.0569877	30.6927	1000	-6.52749e-07	20.0237	20.0993	18.1043	18.1043	20.0237	20.0993	18.1043	20.0237	20.0993	778.251	-0	-500
0.208333	0.0569877	0.0569877	0.0569877	30.6927	1000	-6.52749e-07	20.0241	20.0995	18.0893	18.0893	20.0241	20.0995	18.0893	20.0241	20.0995	777.604	-0	-500
0.211111	0.0569877	0.0569877	0.0569877	30.6927	1000	-6.52749e-07	20.0245	20.0996	18.0745	18.0745	20.0245	20.0996	18.0745	20.0245	20.0996	776.967	-0	-500
0.213889	0.0569877	0.0569877	0.0569877	30.6927	1000	-6.52749e-07	20.0249	20.0997	18.0598	18.0598	20.0249	20.0997	18.0598	20.0249	20.0997	776.338	-0	-500
0.216667	0.0569877	0.0569877	0.0569877	30.6927	1000	-6.52749e-07	20.0254	20.0998	18.0454	18.0454	20.0254	20.0998	18.0454	20.0254	20.0998	775.719	-0	-500
0.219444	0.0569877	0.0569877	0.0569877	30.6927	1000	-6.52749e-07	20.0258	20.0999	18.0312	18.0312	20.0258	20.0999	18.0312	20.0258	20.0999	775.108	-0	-500
0.222222	0.0569877	0.0569877	0.0569877	30.6927	1000	-6.52749e-07	20.0262	20.0999	18.0172	18.0172	20.0262	20.0999	18.0172	20.0262	20.0999	774.506	-0	-500
0.225	0.0569877	0.0569877	0.0569877	30.6927	1000	-6.52749e-07	20.0266	20.1	18.0034	18.0034	20.0266	20.1	18.0034	20.0266	20.1	773.913	-0	-500
0.227778	0.0569877	0.0569877	0.0569877	30.6927	1000	-6.52749e-07	20.027	20.1	17.9898	17.9898	20.027	20.1	17.9898	20.027	20.1	773.329	-0	-500
0.230556	0.0569877	0.0569877	0.0569877	30.6927	1000	-6.52749e-07	20.0274	20.1	17.9764	17.9764	20.0274	20.1	17.9764	20.0274	20.1	772.753	-0	-500
0.233333	0.0569877	0.0569877	0.0569877	30.6927	1000	-6.52749e-07	20.0278	20.0999	17.9632	17.9632	20.0278	20.0999	17.9632	20.0278	20.0999	772.186	-0	-500
0.236111	0.0569877	0.0569877	0.0569877	30.6927	1000	-6.52749e-07	20.0283	20.0999	17.9502	17.9502	20.0283	20.0999	17.9502	20.0283	20.0999	771.627	-0	-500
0.238889	0.0569877	0.0569877	0.0569877	30.6927	1000	-6.52749e-07	20.0287	20.0998	17.9374	17.9374	20.0287	20.0998	17.9374	20.0287	20.0998	771.075	-0	-500
0.241667	0.0569877	0.0569877	0.0569877	30.6927	1000	-6.52749e-07	20.0291	20.0997	17.9247	17.9247	20.0291	20.0997	17.9247	20.0291	20.0997	770.529	-0	-500
0.244444	0.0569877	0.0569877	0.0569877	30.6927	1000	-6.52749e-07	20.0295	20.0996	17.9121	17.9121	20.0295	20.0996	17.9121	20.0295	20.0996	769.989	-0	-500
0.247222	0.0569877	0.0569877	0.0569877	30.6927	1000	-6.52749e-07	20.0299	20.0995	17.8998	17.8998	20.0299	20.0995	17.8998	20.0299	20.0995	769.458	-0	-500
0.25	0.0569877	0.0569877	0.0569877	30.6927	1000	-6.52749e-07	20.0303	20.0993	17.8876	17.8876	20.0303	20.0993	17.8876	20.0303	20.0993	768.933	-0	-500
0.252778	0.0569877	0.0569877	0.0569877	30.6927	1000	-6.52749e-07	20.0306	20.0992	17.8755	17.8755	20.0306	20.0992	17.8755	20.0306	20.0992	768.416	-0	-500
0.255556	0.0569877	0.0569877	0.0569877	30.6927	1000	-6.52749e-07	20.031	20.099	17.8637	17.8637	20.031	20.099	17.8637	20.031	20.099	767.906	-0	-500
0.258333	0.0569877	0.0569877	0.0569877	30.6927	1000	-6.52749e-07	20.0314	20.0988	17.852	17.852	20.0314	20.0988	17.852	20.0314	20.0988	767.403	-0	-500
0.261111	0.0569877	0.0569877	0.0569877	30.6927	1000	-6.52749e-07	20.0318	20.0986	17.8405	17.8405	20.0318	20.0986	17.8405	20.0318	20.0986	766.908	-0	-500
0.263889	0.0569877	0.0569877	0.0569877	30.6927	1000	-6.52749e-07	20.0322	20.0983	17.8291	17.8291	20.0322	20.0983	17.8291	20.0322	20.0983	766.419	-0	-500
0.266667	0.0569877	0.0569877	0.0569877	30.6927	1000	-6.52749e-07	20.0326	20.0981	17.8179	17.8179	20.0326	20.0981	17.8179	20.0326	20.0981	765.937	-0	-500
0.269444	0.0569877	0.0569877	0.0569877	30.6927	1000	-6.52749e-07	20.0329	20.0978	17.8068	17.8068	20.0329	20.0978	17.8068	20.0329	20.0978	765.461	-0	-500
0.272222	0.0569877	0.0569877	0.0569877	30.6927	1000	-6.52749e-07	20.0333	20.0976	17.7959	17.7959	20.0333	20.0976	17.7959	20.0333	20.0976	764.992	-0	-500
0.275	0.0569877	0.0569877	0.0569877	30.6927	1000	-6.52749e-07	20.0337	20.0973	17.7851	17.7851	20.0337	20.0973	17.7851	20.0337	20.0973	764.53	-0	-500
0.277778	0.0569877	0.0569877	0.0569877	30.6927	1000	-6.52749e-07	20.034	20.0969	17.7745	17.7745	20.034	20.0969	17.7745	20.034	20.0969	764.074	-0	-500
0.280556	0.0569877	0.0569877	0.0569877	30.6927	1000	-6.52749e-07	20.0344	20.0966	17.7641	17.7641	20.0344	20.0966	17.7641	20.0344	20.0966	763.624	-0	-500
0.283333	0.0569877	0.0569877	0.0569877	30.6927	1000	-6.52749e-07	20.0347	20.0963	17.7538	17.7538	20.0347	20.0963	17.7538	20.0347	20.0963	763.18	-0	-500
0.286111	0.0569877	0.0569877	0.0569877	30.6927	1000	-6.52749e-07	20.0351	20.0959	17.7436	17.7436	20.0351	20.0959	17.7436	20.0351	20.0959	762.743	-0	-500
0.288889	0.0569877	0.0569877	0.0569877	30.6927	1000	-6.52749e-07	20.0354	20.0956	17.7335	17.7335	20.0354	20.0956	17.7335	20.0354	20.0956	762.312	-0	-500
0.291667	0.0569877	0.0569877	0.0569877	30.6927	1000	-6.52749e-07	20.0358	20.0952	17.7236	17.7236	20.0358	20.0952	17.7236	20.0358	20.0952	761.886	-0	-500
0.294444	0.0569877	0.0569877	0.0569877	30.6927	1000	-6.52749e-07	20.0361	20.0948	17.7139	17.7139	20.0361	20.0948	17.7139	20.0361	20.0948	761.466	-0	-500
0.297222	0.0569877	0.0569877	0.0569877	30.6927	1000	-6.52749e-07	20.0364	20.0944	17.7043	17.7043	20.0364	20.0944	17.7043	20.0364	20.0944	761.053	-0	-500
0.3	0.0569877	0.0569877	0.0569877	30.6927	1000	-6.52749e-07	20.0368	20.0939	17.6948	17.6948	20.0368	20.0939	17.6948	20.0368	20.0939	760.646	-0	-500
0.302778	0.0569877	0.0569877	0.0569877	30.6927	1000	-6.52749e-07	20.0371	20.0935	17.6854	17.6854	20.0371	20.0935	17.6854	20.0371	20.0935	760.244	-0	-500
0.305556	0.0569877	0.0569877	0.0569877	30.6927	1000	-6.52749e-07	20.0374	20.0931	17.6762	17.6762	20.0374	20.0931	17.6762	20.0374	20.0931	759.847	-0	-500
0.308333	0.0569877	0.0569877	0.0569877	30.6927	1000	-6.52749e-07	20.0377	20.0926	17.6671	17.6671	20.0377	20.0926	17.6671	20.0377	20.0926	759.456	-0	-500
0.311111	0.0569877	0.0569877	0.0569877	30.6927	1000	-6.52749e-07	20.0381	20.0921	17.6582	17.6582	20.0381	20.0921	17.6582	20.0381	20.0921	759.071	-0	-500
0.313889	0.0569877	0.0569877	0.0569877	30.6927	1000	-6.52749e-07	20.0384	20.0916	17.6493	17.6493	20.0384	20.0916	17.6493	20.0384	20.0916	758.691	-0	-500
0.316667	0.0569877	0.0569877	0.0569877	30.6927	1000	-6.52749e-07	20.0387	20.0911	17.6406	17.6406	20.0387	20.0911	17.6406	20.0387	20.0911	758.315	-0	-500
0.319444	0.0569877	0.0569877	0.0569877	30.6927	1000	-6.52749e-07	20.039	20.0906	17.632	17.632	20.039	20.0906	17.632	20.039	20.0906	757.945	-0	-500
0.322222	0.0569877	0.0569877	0.0569877	30.6927	1000	-6.52749e-07	20.0393	20.0901	17.6235	17.6235	20.0393	20.0901	17.6235	20.0393	20.0901	757.58	-0	-500
0.325	0.0569877	0.0569877	0.0569877	30.6927	1000	-6.52749e-07	20.0396	20.0895	17.6151	17.6151	20.0396	20.0895	17.6151	20.0396	20.0895	757.22	-0	-500
0.327778	0.0569877	0.0569877	0.0569877	30.6927	1000	-6.52749e-07	20.0399	20.089	17.6068	17.6068	20.0399	20.089	17.6068	20.0399	20.089	756.864	-0	-500
0.330556	0.0569877	0.0569877	0.0569877	30.6927	1000	-6.52749e-07	20.0401	20.0884	17.5987	17.5987	20.0401	20.0884	17.5987	20.0401	20.0884	756.513	-0	-500
0.333333	0.0569877	0.0569877	0.0569877	30.6927	1000	-6.52749e-07	20.0404	20.0879	17.5906	17.5906	20.0404	20.0879	17.5906	20.0404	20.0879	756.167	-0	-500
0.336111	0.0569877	0.0569877	0.0569877	30.6927	1000	-6.52749e-07	20.0407	20.0873	17.5827	17.5827	20.0407	20.0873	17.5827	20.0407	20.0873	755.825	-0	-500
0.338889	0.0569877	0.0569877	0.0569877	30.6927	1000	-6.52749e-07	20.0409	20.0867	17.5748	17.5748	20.0409	20.0867	17.5748	20.0409	20.0867	755.488	-0	-500
0.341667	0.0569877	0.0569877	0.0569877	30.6927	1000	-6.52749e-07	20.0412	20.0861	17.5671	17.5671	20.0412	20.0861	17.5671	20.0412	20.0861	755.155	-0	-500
0.344444	0.0569877	0.0569877	0.0569877	30.6927	1000	-6.52749e-07	20.0415	20.0855	17.5594	17.5594	20.0415	20.0855	17.5594	20.0415	20.0855	754.826	-0	-500
0.347222	0.0569877	0.0569877	0.0569877	30.6927	1000	-6.52749e-07	20.0417	20.0849	17.5518	17.5518	20.0417	20.0849	17.5518	20.0417	20.0849	754.501	-0	-500
0.35	0.0569877	0.0569877	0.0569877	30.6927	1000	-6.52749e-07	20.042	20.0843	17.5444	17.5444	20.042	20.0843	17.5444	20.042	20.0843	754.181	-0	-500
0.352778	0.0569877	0.0569877	0.0569877	30.6927	1000	-6.52749e-07	20.0422	20.0836	17.5371	17.5371	20.0422	20.0836	17.5371	20.0422	20.0836	753.869	-0	-500
0.355556	0.0569877	0.0569877	0.0569877	30.6927	1000	-6.52749e-07	20.0424	20.083	17.53	17.53	20.0424	20.083	17.53	20.0424	20.083	753.562	-0	-500
0.358333	0.0569877	0.0569877	0.0569877	30.6927	1000	-6.52749e-07	20.0427	20.0823	17.523	17.523	20.0427	20.0823	17.523	20.0427	20.0823	753.259	-0	-500
0.361111	0.0569877	0.0569877	0.0569877	30.6927	1000	-6.52749e-07	20.0429	20.0816	17.516	17.516	20.0429	20.0816	17.516	20.0429	20.0816	752.961	-0	-500
0.363889	0.0569877	0.0569877	0.0569877	30.6927	1000	-6.52749e-07	20.0431	20.0809	17.5092	17.5092	20.0431	20.0809	17.5092	20.0431	20.0809	752.666	-0	-500
0.366667	0.0569877	0.0569877	0.0569877	30.6927	1000	-6.52749e-07	20.0434	20.0802	17.5024	17.5024	20.0434	20.0802	17.5024	20.0434	20.0802	752.376	-0	-500
0.369444	0.0569877	0.0569877	0.0569877	30.6927	1000	-6.52749e-07	20.0436	20.0795	17.4958	17.4958	20.0436	20.0795	17.4958	20.0436	20.0795	752.09	-0	-500
0.372222	0.0569877	0.0569877	0.0569877	30.6927	1000	-6.52749e-07	20.0438	20.0788	17.4892	17.4892	20.0438	20.0788	17.4892	20.0438	20.0788	751.808	-0	-500
0.375	0.0569877	0.0569877	0.0569877	30.6927	1000	-6.52749e-07	20.044	20.0781	17.4827	17.4827	20.044	20.0781	17.4827	20.044	20.0781	751.53	-0	-500
0.377778	0.0569877	0.0569877	0.0569877	30.6927	1000	-6.52749e-07	20.0442	20.0773	17.4763	17.4763	20.0442	20.0773	17.4763	20.0442	20.0773	751.256	-0	-500
0.380556	0.0569877	0.0569877	0.0569877	30.6927	1000	-6.52749e-07	20.0444	20.0766	17.47	17.47	20.0444	20.0766	17.47	20.0444	20.0766	750.985	-0	-500
0.383333	0.0569877	0.0569877	0.0569877	30.6927	1000	-6.52749e-07	20.0446	20.0758	17.4638	17.4638	20.0446	20.0758	17.4638	20.0446	20.0758	750.718	-0	-500
0.386111	0.0569877	0.0569877	0.0569877	30.6927	1000	-6.52749e-07	20.0448	20.0751	17.4577	17.4577	20.0448	20.0751	17.4577	20.0448	20.0751	750.454	-0	-500
0.388889	0.0569877	0.0569877	0.0569877	30.6927	1000	-6.52749e-07	20.045	20.0743	17.4517	17.4517	20.045	20.0743	17.4517	20.045	20.0743	750.194	-0	-500
0.391667	0.0569877	0.0569877	0.0569877	30.6927	1000	-6.52749e-07	20.0451	20.0736	17.4457	17.4457	20.0451	20.0736	17.4457	20.0451	20.0736	749.938	-0	-500
0.394444	0.0569877	0.0569877	0.0569877	30.6927	1000	-6.52749e-07	20.0453	20.0728	17.4398	17.4398	20.0453	20.0728	17.4398	20.0453	20.0728	749.685	-0	-500
0.397222	0.0569877	0.0569877	0.0569877	30.6927	1000	-6.52749e-07	20.0455	20.072	17.434	17.434	20.0455	20.072	17.434	20.0455	20.072	749.435	-0	-500
0.4	0.0569877	0.0569877	0.0569877	30.6927	1000	-6.52749e-07	20.0456	20.0712	17.4282	17.4282	20.0456	20.0712	17.4282	20.0456	20.0712	749.188	-0	-500
0.402778	0.0569877	0.0569877	0.0569877	30.6927	1000	-6.52749e-07	20.0458	20.0704	17.4226	17.4226	20.0458	20.0704	17.4226	20.0458	20.0704	748.944	-0	-500
0.405556	0.0569877	0.0569877	0.0569877	30.6927	1000	-6.52749e-07	20.0459	20.0696	17.417	17.417	20.0459	20.0696	17.417	20.0459	20.0696	748.703	-0	-500
0.408333	0.0569877	0.0569877	0.0569877	30.6927	1000	-6.52749e-07	20.0461	20.0688	17.4114	17.4114	20.0461	20.0688	17.4114	20.0461	20.0688	748.465	-0	-500
0.411111	0.0569877	0.0569877	0.0569877	30.6927	1000	-6.52749e-07	20.0462	20.068	17.406	17.406	20.0462	20.068	17.406	20.0462	20.068	748.23	-0	-500
0.413889	0.0569877	0.0569877	0.0569877	30.6927	1000	-6.52749e-07	20.0463	20.0672	17.4006	17.4006	20.0463	20.0672	17.4006	20.0463	20.0672	747.998	-0	-500
0.416667	0.0569877	0.0569877	0.0569877	30.6927	1000	-6.52749e-07	20.0465	20.0663	17.3952	17.3952	20.0465	20.0663	17.3952	20.0465	20.0663	747.768	-0	-500
0.419444	0.0569877	0.0569877	0.0569877	30.6927	1000	-6.52749e-07	20.0466	20.0655	17.3899	17.3899	20.0466	20.0655	17.3899	20.0466	20.0655	747.541	-0	-500
0.422222	0.0569877	0.0569877	0.0569877	30.6927	1000	-6.52749e-07	20.0467	20.0647	17.3847	17.3847	20.0467	20.0647	17.3847	20.0467	20.0647	747.317	-0	-500
0.425	0.0569877	0.0569877	0.0569877	30.6927	1000	-6.52749e-07	20.0468	20.0638	17.3795	17.3795	20.0468	20.0638	17.3795	20.0468	20.0638	747.095	-0	-500
0.427778	0.0569877	0.0569877	0.0569877	30.6927	1000	-6.52749e-07	20.0469	20.063	17.3744	17.3744	20.0469	20.063	17.3744	20.0469	20.063	746.875	-0	-500
0.430556	0.0569877	0.0569877	0.0569877	30.6927	1000	-6.52749e-07	20.047	20.0621	17.3694	17.3694	20.047	20.0621	17.3694	20.047	20.0621	746.658	-0	-500
0.433333	0.0569877	0.0569877	0.0569877	30.6927	1000	-6.52749e-07	20.0471	20.0613	17.3644	17.3644	20.0471	20.0613	17.3644	20.0471	20.0613	746.442	-0	-500
0.436111	0.0569877	0.0569877	0.0569877	30.6927	1000	-6.52749e-07	20.0472	20.0604	17.3594	17.3594	20.0472	20.0604	17.3594	20.0472	20.0604	746.229	-0	-500
0.438889	0.0569877	0.0569877	0.0569877	30.6927	1000	-6.52749e-07	20.0472	20.0595	17.3547	17.3547	20.0472	20.0595	17.3547	20.0472	20.0595	746.025	-0	-500
0.441667	0.0569877	0.0569877	0.0569877	30.6927	1000	-6.52749e-07	20.0473	20.0586	17.35	17.35	20.0473	20.0586	17.35	20.0473	20.0586	745.825	-0	-500
0.444444	0.0569877	0.0569877	0.0569877	30.6927	1000	-6.52749e-07	20.0474	20.0577	17.3454	17.3454	20.0474	20.0577	17.3454	20.0474	20.0577	745.628	-0	-500
0.447222	0.0569877	0.0569877	0.0569877	30.6927	1000	-6.52749e-07	20.0475	20.0568	17.3409	17.3409	20.0475	20.0568	17.3409	20.0475	20.0568	745.433	-0	-500
0.45	0.0569877	0.0569877	0.0569877	30.6927	1000	-6.52749e-07	20.0475	20.0559	17.3364	17.3364	20.0475	20.0559	17.3364	20.0475	20.0559	745.241	-0	-500
0.452778	0.0569877	0.0569877	0.0569877	30.6927	1000	-6.52749e-07	20.0476	20.055	17.332	17.332	20.0476	20.055	17.332	20.0476	20.055	745.052	-0	-500
0.455556	0.0569877	0.0569877	0.0569877	30.6927	1000	-6.52749e-07	20.0476	20.0541	17.3277	17.3277	20.0476	20.0541	17.3277	20.0476	20.0541	744.865	-0	-500
0.458333	0.0569877	0.0569877	0.0569877	30.6927	1000	-6.52749e-07	20.0477	20.0532	17.3234	17.3234	20.0477	20.0532	17.3234	20.0477	20.0532	744.68	-0	-500
0.461111	0.0569877	0.0569877	0.0569877	30.6927	1000	-6.52749e-07	20.0477	20.0522	17.3192	17.3192	20.0477	20.0522	17.3192	20.0477	20.0522	744.498	-0	-500
0.463889	0.0569877	0.0569877	0.0569877	30.6927	1000	-6.52749e-07	20.0477	20.0513	17.315	17.315	20.0477	20.0513	17.315	20.0477	20.0513	744.318	-0	-500
0.466667	0.0569877	0.0569877	0.0569877	30.6927	1000	-6.52749e-07	20.0478	20.0504	17.3108	17.3108	20.0478	20.0504	17.3108	20.0478	20.0504	744.141	-0	-500
0.469444	0.0569877	0.0569877	0.0569877	30.6927	1000	-6.52749e-07	20.0478	20.0494	17.3068	17.3068	20.0478	20.0494	17.3068	20.0478	20.0494	743.966	-0	-500
0.472222	0.0569877	0.0569877	0.0569877	30.6927	1000	-6.52749e-07	20.0478	20.0485	17.3027	17.3027	20.0478	20.0485	17.3027	20.0478	20.0485	743.792	-0	-500
0.475	0.0569877	0.0569877	0.0569877	30.6927	1000	-6.52749e-07	20.0478	20.0476	17.2987	17.2987	20.0478	20.0476	17.2987	20.0478	20.0476	743.621	-0	-500
0.477778	0.0569877	0.0569877	0.0569877	30.6927	1000	-6.52749e-07	20.0478	20.0466	17.2948	17.2948	20.0478	20.0466	17.2948	20.0478	20.0466	743.452	-0	-500
0.480556	0.0569877	0.0569877	0.0569877	30.6927	1000	-6.52749e-07	20.0478	20.0456	17.2909	17.2909	20.0478	20.0456	17.2909	20.0478	20.0456	743.285	-0	-500
0.483333	0.0569877	0.0569877	0.0569877	30.6927	1000	-6.52749e-07	20.0478	20.0447	17.2871	17.2871	20.0478	20.0447	17.2871	20.0478	20.0447	743.12	-0	-500
0.486111	0.0569877	0.0569877	0.0569877	30.6927	1000	-6.52749e-07	20.0478	20.0437	17.2833	17.2833	20.0478	20.0437	17.2833	20.0478	20.0437	742.957	-0	-500
0.488889	0.0569877	0.0569877	0.0569877	30.6927	1000	-6.52749e-07	20.0478	20.0428	17.2795	17.2795	20.0478	20.0428	17.2795	20.0478	20.0428	742.795	-0	-500
0.491667	0.0569877	0.0569877	0.0569877	30.6927	1000	-6.52749e-07	20.0478	20.0418	17.2758	17.2758	20.0478	20.0418	17.2758	20.0478	20.0418	742.635	-0	-500
0.494444	0.0569877	0.0569877	0.0569877	30.6927	1000	-6.52749e-07	20.0478	20.0408	17.2721	17.2721	20.0478	20.0408	17.2721	20.0478	20.0408	742.478	-0	-500
0.497222	0.0569877	0.0569877	0.0569877	30.6927	1000	-6.52749e-07	20.0477	20.0398	17.2685	17.2685	20.0477	20.0398	17.2685	20.0477	20.0398	742.321	-0	-500
0.5	0.0569877	0.0569877	0.0569877	30.6927	1000	-6.52749e-07	20.0477	20.0389	17.2649	17.2649	20.0477	20.0389	17.2649	20.0477	20.0389	742.167	-0	-500
0.583333	0.0569877	0.0569877	0.0569877	30.6927	1000	-6.52749e-07	20.044	20.0082	17.1757	17.1757	20.044	20.0082	17.1757	20.044	20.0082	738.333	-0	-500
0.666667	0.0569877	0.0569877	0.0569877	30.6927	1000	-6.52749e-07	20.0358	19.9758	17.1128	17.1128	20.0358	19.9758	17.1128	20.0358	19.9758	735.628	-0	-500
0.75	0.0569877	0.0569877	0.0569877	30.6927	1000	-6.52749e-07	20.0237	19.9426	17.0667	17.0667	20.0237	19.9426	17.0667	20.0237	19.9426	733.648	-0	-500
0.833333	0.0569877	0.0569877	0.0569877	30.6927	1000	-6.52749e-07	20.0082	19.9091	17.0314	17.0314	20.0082	19.9091	17.0314	20.0082	19.9091	732.127	-0	-500
0.916667	0.0569877	0.0569877	0.0569877	30.6927	1000	-6.52749e-07	19.9899	19.8758	17.0026	17.0026	19.9899	19.8758	17.0026	19.9899	19.8758	730.89	-0	-500
1	0.0569877	0.0569877	0.0569877	30.6927	1000	-6.52749e-07	19.9693	19.8428	16.9776	16.9776	19.9693	19.8428	16.9776	19.9693	19.8428	729.816	-0	-500
1.08333	0.0569877	0.0569877	0.0569877	30.6927	1000	-6.52749e-07	19.9467	19.8101	16.9548	16.9548	19.9467	19.8101	16.9548	19.9467	19.8101	728.837	-0	-500
1.16667	0.0569877	0.0569877	0.0569877	30.6927	1000	-6.52749e-07	19.9225	19.7779	16.933	16.933	19.9225	19.7779	16.933	19.9225	19.7779	727.899	-0	-500
1.25	0.0569877	0.0569877	0.0569877	30.6927	1000	-6.52749e-07	19.8971	19.7462	16.9116	16.9116	19.8971	19.7462	16.9116	19.8971	19.7462	726.978	-0	-500
1.33333	0.0569877	0.0569877	0.0569877	30.6927	1000	-6.52749e-07	19.8708	19.7148	16.8898	16.8898	19.8708	19.7148	16.8898	19.8708	19.7148	726.04	-0	-500
1.41667	0.0569877	0.0569877	0.0569877	30.6927	1000	-6.52749e-07	19.8437	19.6839	16.8676	16.8676	19.8437	19.6839	16.8676	19.8437	19.6839	725.089	-0	-500
1.5	0.0569877	0.0569877	0.0569877	30.6927	1000	-6.52749e-07	19.816	19.6533	16.8451	16.8451	19.816	19.6533	16.8451	19.816	19.6533	724.119	-0	-500
1.58333	0.0569877	0.0569877	0.0569877	30.6927	1000	-6.52749e-07	19.7879	19.6231	16.8221	16.8221	19.7879	19.6231	16.8221	19.7879	19.6231	723.13	-0	-500
1.66667	0.0569877	0.0569877	0.0569877	30.6927	1000	-6.52749e-07	19.7594	19.5932	16.7988	16.7988	19.7594	19.5932	16.7988	19.7594	19.5932	722.129	-0	-500
1.75	0.0569877	0.0569877	0.0569877	30.6927	1000	-6.52749e-07	19.7308	19.5636	16.7752	16.7752	19.7308	19.5636	16.7752	19.7308	19.5636	721.114	-0	-500
1.83333	0.0569877	0.0569877	0.0569877	30.6927	1000	-6.52749e-07	19.7019	19.5342	16.7513	16.7513	19.7019	19.5342	16.7513	19.7019	19.5342	720.09	-0	-500
1.91667	0.0569877	0.0569877	0.0569877	30.6927	1000	-6.52749e-07	19.6729	19.505	16.7273	16.7273	19.6729	19.505	16.7273	19.6729	19.505	719.058	-0	-500
2	0.0569877	0.0569877	0.0569877	30.6927	1000	-6.52749e-07	19.644	19.4761	16.7031	16.7031	19.644	19.4761	16.7031	19.644	19.4761	718.017	-0	-500
2.08333	0.0569877	0.0569877	0.0569877	30.6927	1000	-6.52749e-07	19.6151	19.4474	16.6787	16.6787	19.6151	19.4474	16.6787	19.6151	19.4474	716.969	-0	-500
2.16667	0.0569877	0.0569877	0.0569877	30.6927	1000	-6.52749e-07	19.5862	19.4188	16.6544	16.6544	19.5862	19.4188	16.6544	19.5862	19.4188	715.921	-0	-500
2.25	0.0569877	0.0569877	0.0569877	30.6927	1000	-6.52749e-07	19.5573	19.3904	16.6299	16.6299	19.5573	19.3904	16.6299	19.5573	19.3904	714.87	-0	-500
2.33333	0.0569877	0.0569877	0.0569877	30.6927	1000	-6.52749e-07	19.5286	19.3622	16.6055	16.6055	19.5286	19.3622	16.6055	19.5286	19.3622	713.82	-0	-500
2.41667	0.0569877	0.0569877	0.0569877	30.6927	1000	-6.52749e-07	19.5	19.3342	16.5811	16.5811	19.5	19.3342	16.5811	19.5	19.3342	712.77	-0	-500
2.5	0.0569877	0.0569877	0.0569877	30.6927	1000	-6.52749e-07	19.4715	19.3063	16.5567	16.5567	19.4715	19.3063	16.5567	19.4715	19.3063	711.722	-0	-500
2.58333	0.0569877	0.0569877	0.0569877	30.6927	1000	-6.52749e-07	19.4431	19.2785	16.5324	16.5324	19.4431	19.2785	16.5324	19.4431	19.2785	710.678	-0	-500
2.66667	0.0569877	0.0569877	0.0569877	30.6927	1000	-6.52749e-07	19.4149	19.2509	16.5082	16.5082	19.4149	19.2509	16.5082	19.4149	19.2509	709.639	-0	-500
2.75	0.0569877	0.0569877	0.0569877	30.6927	1000	-6.52749e-07	19.3868	19.2234	16.4841	16.4841	19.3868	19.2234	16.4841	19.3868	19.2234	708.603	-0	-500
2.83333	0.0569877	0.0569877	0.0569877	30.6927	1000	-6.52749e-07	19.3588	19.1961	16.4601	16.4601	19.3588	19.1961	16.4601	19.3588	19.1961	707.571	-0	-500
2.91667	0.0569877	0.0569877	0.0569877	30.6927	1000	-6.52749e-07	19.331	19.1689	16.4363	16.4363	19.331	19.1689	16.4363	19.331	19.1689	706.545	-0	-500
3	0.0569877	0.0569877	0.0569877	30.6927	1000	-6.52749e-07	19.3032	19.1418	16.4125	16.4125	19.3032	19.1418	16.4125	19.3032	19.1418	705.525	-0	-500
3.08333	0.0569877	0.0569877	0.0569877	30.6927	1000	-6.52749e-07	19.2756	19.1149	16.3888	16.3888	19.2756	19.1149	16.3888	19.2756	19.1149	704.507	-0	-500
3.16667	0.0569877	0.0569877	0.0569877	30.6927	1000	-6.52749e-07	19.2481	19.0881	16.3653	16.3653	19.2481	19.0881	16.3653	19.2481	19.0881	703.495	-0	-500
3.25	0.0569877	0.0569877	0.0569877	30.6927	1000	-6.52749e-07	19.2208	19.0615	16.3418	16.3418	19.2208	19.0615	16.3418	19.2208	19.0615	702.487	-0	-500
3.33333	0.0569877	0.0569877	0.0569877	30.6927	1000	-6.52749e-07	19.1935	19.035	16.3185	16.3185	19.1935	19.035	16.3185	19.1935	19.035	701.484	-0	-500
3.41667	0.0569877	0.0569877	0.0569877	30.6927	1000	-6.52749e-07	19.1664	19.0086	16.2953	16.2953	19.1664	19.0086	16.2953	19.1664	19.0086	700.486	-0	-500
3.5	0.0569877	0.0569877	0.0569877	30.6927	1000	-6.52749e-07	19.1395	18.9823	16.2722	16.2722	19.1395	18.9823	16.2722	19.1395	18.9823	699.493	-0	-500
3.58333	0.0569877	0.0569877	0.0569877	30.6927	1000	-6.52749e-07	19.1126	18.9562	16.2492	16.2492	19.1126	18.9562	16.2492	19.1126	18.9562	698.504	-0	-500
3.66667	0.0569877	0.0569877	0.0569877	30.6927	1000	-6.52749e-07	19.0859	18.9302	16.2263	16.2263	19.0859	18.9302	16.2263	19.0859	18.9302	697.519	-0	-500
3.75	0.0569877	0.0569877	0.0569877	30.6927	1000	-6.52749e-07	19.0593	18.9044	16.2035	16.2035	19.0593	18.9044	16.2035	19.0593	18.9044	696.539	-0	-500
3.83333	0.0569877	0.0569877	0.0569877	30.6927	1000	-6.52749e-07	19.0328	18.8786	16.1808	16.1808	19.0328	18.8786	16.1808	19.0328	18.8786	695.563	-0	-500
3.91667	0.0569877	0.0569877	0.0569877	30.6927	1000	-6.52749e-07	19.0065	18.853	16.1582	16.1582	19.0065	18.853	16.1582	19.0065	18.853	694.593	-0	-500
4	0.0569877	0.0569877	0.0569877	30.6927	1000	-6.52749e-07	18.9803	18.8275	16.1357	16.1357	18.9803	18.8275	16.1357	18.9803	18.8275	693.626	-0	-500
4.08333	0.0569877	0.0569877	0.0569877	30.6927	1000	-6.52749e-07	18.9542	18.8022	16.1134	16.1134	18.9542	18.8022	16.1134	18.9542	18.8022	692.665	-0	-500
4.16667	0.0569877	0.0569877	0.0569877	30.6927	1000	-6.52749e-07	18.9282	18.777	16.0911	16.0911	18.9282	18.777	16.0911	18.9282	18.777	691.708	-0	-500
4.25	0.0569877	0.0569877	0.0569877	30.6927	1000	-6.52749e-07	18.9024	18.7519	16.0689	16.0689	18.9024	18.7519	16.0689	18.9024	18.7519	690.756	-0	-500
4.33333	0.0569877	0.0569877	0.0569877	30.6927	1000	-6.52749e-07	18.8767	18.7269	16.0469	16.0469	18.8767	18.7269	16.0469	18.8767	18.7269	689.808	-0	-500
4.41667	0.0569877	0.0569877	0.0569877	30.6927	1000	-6.52749e-07	18.8511	18.7021	16.025	16.025	18.8511	18.7021	16.025	18.8511	18.7021	688.865	-0	-500
4.5	0.0569877	0.0569877	0.0569877	30.6927	1000	-6.52749e-07	18.8256	18.6774	16.0031	16.0031	18.8256	18.6774	16.0031	18.8256	18.6774	687.926	-0	-500
4.58333	0.0569877	0.0569877	0.0569877	30.6927	1000	-6.52749e-07	18.8003	18.6528	15.9814	15.9814	18.8003	18.6528	15.9814	18.8003	18.6528	686.992	-0	-500
4.66667	0.0569877	0.0569877	0.0569877	30.6927	1000	-6.52749e-07	18.775	18.6283	15.9598	15.9598	18.775	18.6283	15.9598	18.775	18.6283	686.062	-0	-500
4.75	0.0569877	0.0569877	0.0569877	30.6927	1000	-6.52749e-07	18.75	18.6039	15.9382	15.9382	18.75	18.6039	15.9382	18.75	18.6039	685.137	-0	-500
4.83333	0.0569877	0.0569877	0.0569877	30.6927	1000	-6.52749e-07	18.725	18.5797	15.9168	15.9168	18.725	18.5797	15.9168	18.725	18.5797	684.216	-0	-500
4.91667	0.0569877	0.0569877	0.0569877	30.6927	1000	-6.52749e-07	18.7002	18.5555	15.8955	15.8955	18.7002	18.5555	15.8955	18.7002	18.5555	683.3	-0	-500
5	0.0569877	0.0569877	0.0569877	30.6927	1000	-6.52749e-07	18.6754	18.5315	15.8743	15.8743	18.6754	18.5315	15.8743	18.6754	18.5315	682.389	-0	-500
5.08333	0.0569877	0.0569877	0.0569877	30.6927	1000	-6.52749e-07	18.6509	18.5077	15.8532	15.8532	18.6509	18.5077	15.8532	18.6509	18.5077	681.482	-0	-500
5.16667	0.0569877	0.0569877	0.0569877	30.6927	1000	-6.52749e-07	18.6264	18.4839	15.8322	15.8322	18.6264	18.4839	15.8322	18.6264	18.4839	680.58	-0	-500
5.25	0.0569877	0.0569877	0.0569877	30.6927	1000	-6.52749e-07	18.6021	18.4603	15.8113	15.8113	18.6021	18.4603	15.8113	18.6021	18.4603	679.682	-0	-500
5.33333	0.0569877	0.0569877	0.0569877	30.6927	1000	-6.52749e-07	18.5778	18.4368	15.7906	15.7906	18.5778	18.4368	15.7906	18.5778	18.4368	678.789	-0	-500
5.41667	0.0569877	0.0569877	0.0569877	30.6927	1000	-6.52749e-07	18.5537	18.4134	15.7699	15.7699	18.5537	18.4134	15.7699	18.5537	18.4134	677.9	-0	-500
5.5	0.0569877	0.0569877	0.0569877	30.6927	1000	-6.52749e-07	18.5297	18.3901	15.7493	15.7493	18.5297	18.3901	15.7493	18.5297	18.3901	677.015	-0	-500
5.58333	0.0569877	0.0569877	0.0569877	30.6927	1000	-6.52749e-07	18.5059	18.367	15.7288	15.7288	18.5059	18.367	15.7288	18.5059	18.367	676.134	-0	-500
5.66667	0.0569877	0.0569877	0.0569877	30.6927	1000	-6.52749e-07	18.4821	18.3439	15.7084	15.7084	18.4821	18.3439	15.7084	18.4821	18.3439	675.258	-0	-500
5.75	0.0569877	0.0569877	0.0569877	30.6927	1000	-6.52749e-07	18.4585	18.3209	15.6881	15.6881	18.4585	18.3209	15.6881	18.4585	18.3209	674.386	-0	-500
5.83333	0.0569877	0.0569877	0.0569877	30.6927	1000	-6.52749e-07	18.435	18.2981	15.668	15.668	18.435	18.2981	15.668	18.435	18.2981	673.518	-0	-500
5.91667	0.0569877	0.0569877	0.0569877	30.6927	1000	-6.52749e-07	18.4116	18.2754	15.6479	15.6479	18.4116	18.2754	15.6479	18.4116	18.2754	672.655	-0	-500
6	0.0569877	0.0569877	0.0569877	30.6927	1000	-6.52749e-07	18.3883	18.2528	15.6279	15.6279	18.3883	18.2528	15.6279	18.3883	18.2528	671.797	-0	-500
6.08333	0.0569877	0.0569877	0.0569877	30.6927	1000	-6.52749e-07	18.3651	18.2303	15.608	15.608	18.3651	18.2303	15.608	18.3651	18.2303	670.943	-0	-500
6.16667	0.0569877	0.0569877	0.0569877	30.6927	1000	-6.52749e-07	18.3421	18.208	15.5883	15.5883	18.3421	18.208	15.5883	18.3421	18.208	670.093	-0	-500
6.25	0.0569877	0.0569877	0.0569877	30.6927	1000	-6.52749e-07	18.3192	18.1857	15.5686	15.5686	18.3192	18.1857	15.5686	18.3192	18.1857	669.248	-0	-500
6.33333	0.0569877	0.0569877	0.0569877	30.6927	1000	-6.52749e-07	18.2964	18.1636	15.549	15.549	18.2964	18.1636	15.549	18.2964	18.1636	668.407	-0	-500
6.41667	0.0569877	0.0569877	0.0569877	30.6927	1000	-6.52749e-07	18.2737	18.1415	15.5296	15.5296	18.2737	18.1415	15.5296	18.2737	18.1415	667.569	-0	-500
6.5	0.0569877	0.0569877	0.0569877	30.6927	1000	-6.52749e-07	18.2511	18.1196	15.5102	15.5102	18.2511	18.1196	15.5102	18.2511	18.1196	666.736	-0	-500
6.58333	0.0569877	0.0569877	0.0569877	30.6927	1000	-6.52749e-07	18.2286	18.0978	15.4909	15.4909	18.2286	18.0978	15.4909	18.2286	18.0978	665.906	-0	-500
6.66667	0.0569877	0.0569877	0.0569877	30.6927	1000	-6.52749e-07	18.2062	18.076	15.4717	15.4717	18.2062	18.076	15.4717	18.2062	18.076	665.081	-0	-500
6.75	0.0569877	0.0569877	0.0569877	30.6927	1000	-6.52749e-07	18.1839	18.0544	15.4526	15.4526	18.1839	18.0544	15.4526	18.1839	18.0544	664.26	-0	-500
6.83333	0.0569877	0.0569877	0.0569877	30.6927	1000	-6.52749e-07	18.1618	18.0329	15.4336	15.4336	18.1618	18.0329	15.4336	18.1618	18.0329	663.442	-0	-500
6.91667	0.0569877	0.0569877	0.0569877	30.6927	1000	-6.52749e-07	18.1397	18.0115	15.4147	15.4147	18.1397	18.0115	15.4147	18.1397	18.0115	662.63	-0	-500
7	0.0569877	0.0569877	0.0569877	30.6927	1000	-6.52749e-07	18.1178	17.9902	15.3958	15.3958	18.1178	17.9902	15.3958	18.1178	17.9902	661.821	-0	-500
7.08333	0.0569877	0.0569877	0.0569877	30.6927	1000	-6.52749e-07	18.096	17.9691	15.3771	15.3771	18.096	17.9691	15.3771	18.096	17.9691	661.016	-0	-500
7.16667	0.0569877	0.0569877	0.0569877	30.6927	1000	-6.52749e-07	18.0743	17.948	15.3585	15.3585	18.0743	17.948	15.3585	18.0743	17.948	660.216	-0	-500
7.25	0.0569877	0.0569877	0.0569877	30.6927	1000	-6.52749e-07	18.0527	17.927	15.34	15.34	18.0527	17.927	15.34	18.0527	17.927	659.42	-0	-500
7.33333	0.0569877	0.0569877	0.0569877	30.6927	1000	-6.52749e-07	18.0313	17.9062	15.3216	15.3216	18.0313	17.9062	15.3216	18.0313	17.9062	658.628	-0	-500
7.41667	0.0569877	0.0569877	0.0569877	30.6927	1000	-6.52749e-07	18.0099	17.8855	15.3032	15.3032	18.0099	17.8855	15.3032	18.0099	17.8855	657.84	-0	-500
7.5	0.0569877	0.0569877	0.0569877	30.6927	1000	-6.52749e-07	17.9886	17.8648	15.285	15.285	17.9886	17.8648	15.285	17.9886	17.8648	657.055	-0	-500
7.58333	0.0569877	0.0569877	0.0569877	30.6927	1000	-6.52749e-07	17.9674	17.8442	15.2668	15.2668	17.9674	17.8442	15.2668	17.9674	17.8442	656.274	-0	-500
7.66667	0.0569877	0.0569877	0.0569877	30.6927	1000	-6.52749e-07	17.9464	17.8238	15.2487	15.2487	17.9464	17.8238	15.2487	17.9464	17.8238	655.497	-0	-500
7.75	0.0569877	0.0569877	0.0569877	30.6927	1000	-6.52749e-07	17.9254	17.8034	15.2308	15.2308	17.9254	17.8034	15.2308	17.9254	17.8034	654.724	-0	-500
7.83333	0.0569877	0.0569877	0.0569877	30.6927	1000	-6.52749e-07	17.9046	17.7832	15.2129	15.2129	17.9046	17.7832	15.2129	17.9046	17.7832	653.955	-0	-500
7.91667	0.0569877	0.0569877	0.0569877	30.6927	1000	-6.52749e-07	17.8838	17.7631	15.1951	15.1951	17.8838	17.7631	15.1951	17.8838	17.7631	653.19	-0	-500
8	0.0569877	0.0569877	0.0569877	30.6927	1000	-6.52749e-07	17.8632	17.743	15.1773	15.1773	17.8632	17.743	15.1773	17.8632	17.743	652.429	-0	-500
8.08333	0.0569877	0.0569877	0.0569877	30.6927	1000	-6.52749e-07	17.8426	17.7231	15.1597	15.1597	17.8426	17.7231	15.1597	17.8426	17.7231	651.671	-0	-500
8.16667	0.0569877	0.0569877	0.0569877	30.6927	1000	-6.52749e-07	17.8222	17.7032	15.1422	15.1422	17.8222	17.7032	15.1422	17.8222	17.7032	650.917	-0	-500
8.25	0.0569877	0.0569877	0.0569877	30.6927	1000	-6.52749e-07	17.8019	17.6835	15.1247	15.1247	17.8019	17.6835	15.1247	17.8019	17.6835	650.167	-0	-500
8.33333	0.0569877	0.0569877	0.0569877	30.6927	1000	-6.52749e-07	17.7816	17.6639	15.1074	15.1074	17.7816	17.6639	15.1074	17.7816	17.6639	649.421	-0	-500
8.41667	0.0569877	0.0569877	0.0569877	30.6927	1000	-6.52749e-07	17.7615	17.6443	15.0901	15.0901	17.7615	17.6443	15.0901	17.7615	17.6443	648.679	-0	-500
8.5	0.0569877	0.0569877	0.0569877	30.6927	1000	-6.52749e-07	17.7415	17.6249	15.0729	15.0729	17.7415	17.6249	15.0729	17.7415	17.6249	647.94	-0	-500
8.58333	0.0569877	0.0569877	0.0569877	30.6927	1000	-6.52749e-07	17.7215	17.6055	15.0558	15.0558	17.7215	17.6055	15.0558	17.7215	17.6055	647.205	-0	-500
8.66667	0.0569877	0.0569877	0.0569877	30.6927	1000	-6.52749e-07	17.7017	17.5863	15.0388	15.0388	17.7017	17.5863	15.0388	17.7017	17.5863	646.473	-0	-500
8.75	0.0569877	0.0569877	0.0569877	30.6927	1000	-6.52749e-07	17.682	17.5671	15.0219	15.0219	17.682	17.5671	15.0219	17.682	17.5671	645.746	-0	-500
8.83333	0.0569877	0.0569877	0.0569877	30.6927	1000	-6.52749e-07	17.6624	17.548	15.005	15.005	17.6624	17.548	15.005	17.6624	17.548	645.021	-0	-500
8.91667	0.0569877	0.0569877	0.0569877	30.6927	1000	-6.52749e-07	17.6428	17.5291	14.9883	14.9883	17.6428	17.5291	14.9883	17.6428	17.5291	644.301	-0	-500
9	0.0569877	0.0569877	0.0569877	30.6927	1000	-6.52749e-07	17.6234	17.5102	14.9716	14.9716	17.6234	17.5102	14.9716	17.6234	17.5102	643.584	-0	-500
9.08333	0.0569877	0.0569877	0.0569877	30.6927	1000	-6.52749e-07	17.604	17.4914	14.955	14.955	17.604	17.4914	14.955	17.604	17.4914	642.87	-0	-500
9.16667	0.0569877	0.0569877	0.0569877	30.6927	1000	-6.52749e-07	17.5848	17.4727	14.9385	14.9385	17.5848	17.4727	14.9385	17.5848	17.4727	642.161	-0	-500
9.25	0.0569877	0.0569877	0.0569877	30.6927	1000	-6.52749e-07	17.5656	17.4541	14.9221	14.9221	17.5656	17.4541	14.9221	17.5656	17.4541	641.454	-0	-500
9.33333	0.0569877	0.0569877	0.0569877	30.6927	1000	-6.52749e-07	17.5466	17.4356	14.9057	14.9057	17.5466	17.4356	14.9057	17.5466	17.4356	640.752	-0	-500
9.41667	0.0569877	0.0569877	0.0569877	30.6927	1000	-6.52749e-07	17.5276	17.4172	14.8894	14.8894	17.5276	17.4172	14.8894	17.5276	17.4172	640.052	-0	-500
9.5	0.0569877	0.0569877	0.0569877	30.6927	1000	-6.52749e-07	17.5088	17.3989	14.8733	14.8733	17.5088	17.3989	14.8733	17.5088	17.3989	639.356	-0	-500
9.58333	0.0569877	0.0569877	0.0569877	30.6927	1000	-6.52749e-07	17.49	17.3807	14.8571	14.8571	17.49	17.3807	14.8571	17.49	17.3807	638.664	-0	-500
9.66667	0.0569877	0.0569877	0.0569877	30.6927	1000	-6.52749e-07	17.4713	17.3625	14.8411	14.8411	17.4713	17.3625	14.8411	17.4713	17.3625	637.975	-0	-500
9.75	0.0569877	0.0569877	0.0569877	30.6927	1000	-6.52749e-07	17.4527	17.3445	14.8252	14.8252	17.4527	17.3445	14.8252	17.4527	17.3445	637.29	-0	-500
9.83333	0.0569877	0.0569877	0.0569877	30.6927	1000	-6.52749e-07	17.4342	17.3265	14.8093	14.8093	17.4342	17.3265	14.8093	17.4342	17.3265	636.608	-0	-500
9.91667	0.0569877	0.0569877	0.0569877	30.6927	1000	-6.52749e-07	17.4158	17.3087	14.7935	14.7935	17.4158	17.3087	14.7935	17.4158	17.3087	635.929	-0	-500
10	0.0569877	0.0569877	0.0569877	30.6927	1000	-6.52749e-07	17.3975	17.2909	14.7778	14.7778	17.3975	17.2909	14.7778	17.3975	17.2909	635.254	-0	-500
10.0833	0.0569877	0.0569877	0.0569877	30.6927	1000	-6.52749e-07	17.3793	17.2732	14.7622	14.7622	17.3793	17.2732	14.7622	17.3793	17.2732	634.582	-0	-500
10.1667	0.0569877	0.0569877	0.0569877	30.6927	1000	-6.52749e-07	17.3612	17.2556	14.7466	14.7466	17.3612	17.2556	14.7466	17.3612	17.2556	633.913	-0	-500
10.25	0.0569877	0.0569877	0.0569877	30.6927	1000	-6.52749e-07	17.3431	17.2381	14.7312	14.7312	17.3431	17.2381	14.7312	17.3431	17.2381	633.248	-0	-500
10.3333	0.0569877	0.0569877	0.0569877	30.6927	1000	-6.52749e-07	17.3252	17.2207	14.7158	14.7158	17.3252	17.2207	14.7158	17.3252	17.2207	632.586	-0	-500
10.4167	0.0569877	0.0569877	0.0569877	30.6927	1000	-6.52749e-07	17.3073	17.2033	14.7004	14.7004	17.3073	17.2033	14.7004	17.3073	17.2033	631.927	-0	-500
10.5	0.0569877	0.0569877	0.0569877	30.6927	1000	-6.52749e-07	17.2896	17.1861	14.6852	14.6852	17.2896	17.1861	14.6852	17.2896	17.1861	631.272	-0	-500
10.5833	0.0569877	0.0569877	0.0569877	30.6927	1000	-6.52749e-07	17.2719	17.1689	14.67	14.67	17.2719	17.1689	14.67	17.2719	17.1689	630.62	-0	-500
10.6667	0.0569877	0.0569877	0.0569877	30.6927	1000	-6.52749e-07	17.2543	17.1518	14.6549	14.6549	17.2543	17.1518	14.6549	17.2543	17.1518	629.971	-0	-500
10.75	0.0569877	0.0569877	0.0569877	30.6927	1000	-6.52749e-07	17.2368	17.1348	14.6399	14.6399	17.2368	17.1348	14.6399	17.2368	17.1348	629.325	-0	-500
10.8333	0.0569877	0.0569877	0.0569877	30.6927	1000	-6.52749e-07	17.2194	17.1179	14.625	14.625	17.2194	17.1179	14.625	17.2194	17.1179	628.683	-0	-500
10.9167	0.0569877	0.0569877	0.0569877	30.6927	1000	-6.52749e-07	17.202	17.1011	14.6101	14.6101	17.202	17.1011	14.6101	17.202	17.1011	628.044	-0	-500
11	0.0569877	0.0569877	0.0569877	30.6927	1000	-6.52749e-07	17.1848	17.0843	14.5953	14.5953	17.1848	17.0843	14.5953	17.1848	17.0843	627.407	-0	-500
11.0833	0.0569877	0.0569877	0.0569877	30.6927	1000	-6.52749e-07	17.1676	17.0677	14.5806	14.5806	17.1676	17.0677	14.5806	17.1676	17.0677	626.774	-0	-500
11.1667	0.0569877	0.0569877	0.0569877	30.6927	1000	-6.52749e-07	17.1505	17.0511	14.5659	14.5659	17.1505	17.0511	14.5659	17.1505	17.0511	626.145	-0	-500
11.25	0.0569877	0.0569877	0.0569877	30.6927	1000	-6.52749e-07	17.1336	17.0346	14.5513	14.5513	17.1336	17.0346	14.5513	17.1336	17.0346	625.518	-0	-500
11.3333	0.0569877	0.0569877	0.0569877	30.6927	1000	-6.52749e-07	17.1166	17.0182	14.5368	14.5368	17.1166	17.0182	14.5368	17.1166	17.0182	624.894	-0	-500
11.4167	0.0569877	0.0569877	0.0569877	30.6927	1000	-6.52749e-07	17.0998	17.0019	14.5224	14.5224	17.0998	17.0019	14.5224	17.0998	17.0019	624.274	-0	-500
11.5	0.0569877	0.0569877	0.0569877	30.6927	1000	-6.52749e-07	17.0831	16.9856	14.508	14.508	17.0831	16.9856	14.508	17.0831	16.9856	623.656	-0	-500
11.5833	0.0569877	0.0569877	0.0569877	30.6927	1000	-6.52749e-07	17.0664	16.9694	14.4937	14.4937	17.0664	16.9694	14.4937	17.0664	16.9694	623.042	-0	-500
11.6667	0.0569877	0.0569877	0.0569877	30.6927	1000	-6.52749e-07	17.0499	16.9533	14.4795	14.4795	17.0499	16.9533	14.4795	17.0499	16.9533	622.431	-0	-500
11.75	0.0569877	0.0569877	0.0569877	30.6927	1000	-6.52749e-07	17.0334	16.9373	14.4654	14.4654	17.0334	16.9373	14.4654	17.0334	16.9373	621.823	-0	-500
11.8333	0.0569877	0.0569877	0.0569877	30.6927	1000	-6.52749e-07	17.017	16.9214	14.4513	14.4513	17.017	16.9214	14.4513	17.017	16.9214	621.218	-0	-500
11.9167	0.0569877	0.0569877	0.0569877	30.6927	1000	-6.52749e-07	17.0006	16.9056	14.4373	14.4373	17.0006	16.9056	14.4373	17.0006	16.9056	620.615	-0	-500
12	0.0569877	0.0569877	0.0569877	30.6927	1000	-6.52749e-07	16.9844	16.8898	14.4233	14.4233	16.9844	16.8898	14.4233	16.9844	16.8898	620.016	-0	-500
12.0833	0.0569877	0.0569877	0.0569877	30.6927	1000	-6.52749e-07	16.9682	16.8741	14.4095	14.4095	16.9682	16.8741	14.4095	16.9682	16.8741	619.42	-0	-500
12.1667	0.0569877	0.0569877	0.0569877	30.6927	1000	-6.52749e-07	16.9521	16.8585	14.3957	14.3957	16.9521	16.8585	14.3957	16.9521	16.8585	618.827	-0	-500
12.25	0.0569877	0.0569877	0.0569877	30.6927	1000	-6.52749e-07	16.9361	16.8429	14.3819	14.3819	16.9361	16.8429	14.3819	16.9361	16.8429	618.236	-0	-500
12.3333	0.0569877	0.0569877	0.0569877	30.6927	1000	-6.52749e-07	16.9202	16.8275	14.3683	14.3683	16.9202	16.8275	14.3683	16.9202	16.8275	617.649	-0	-500
12.4167	0.0569877	0.0569877	0.0569877	30.6927	1000	-6.52749e-07	16.9044	16.8121	14.3547	14.3547	16.9044	16.8121	14.3547	16.9044	16.8121	617.064	-0	-500
12.5	0.0569877	0.0569877	0.0569877	30.6927	1000	-6.52749e-07	16.8886	16.7968	14.3411	14.3411	16.8886	16.7968	14.3411	16.8886	16.7968	616.483	-0	-500
12.5833	0.0569877	0.0569877	0.0569877	30.6927	1000	-6.52749e-07	16.8729	16.7815	14.3277	14.3277	16.8729	16.7815	14.3277	16.8729	16.7815	615.904	-0	-500
12.6667	0.0569877	0.0569877	0.0569877	30.6927	1000	-6.52749e-07	16.8573	16.7664	14.3143	14.3143	16.8573	16.7664	14.3143	16.8573	16.7664	615.328	-0	-500
12.75	0.0569877	0.0569877	0.0569877	30.6927	1000	-6.52749e-07	16.8418	16.7513	14.301	14.301	16.8418	16.7513	14.301	16.8418	16.7513	614.755	-0	-500
12.8333	0.0569877	0.0569877	0.0569877	30.6927	1000	-6.52749e-07	16.8263	16.7363	14.2877	14.2877	16.8263	16.7363	14.2877	16.8263	16.7363	614.185	-0	-500
12.9167	0.0569877	0.0569877	0.0569877	30.6927	1000	-6.52749e-07	16.8109	16.7214	14.2745	14.2745	16.8109	16.7214	14.2745	16.8109	16.7214	613.618	-0	-500
13	0.0569877	0.0569877	0.0569877	30.6927	1000	-6.52749e-07	16.7956	16.7065	14.2614	14.2614	16.7956	16.7065	14.2614	16.7956	16.7065	613.054	-0	-500
13.0833	0.0569877	0.0569877	0.0569877	30.6927	1000	-6.52749e-07	16.7804	16.6917	14.2483	14.2483	16.7804	16.6917	14.2483	16.7804	16.6917	612.492	-0	-500
13.1667	0.0569877	0.0569877	0.0569877	30.6927	1000	-6.52749e-07	16.7652	16.677	14.2353	14.2353	16.7652	16.677	14.2353	16.7652	16.677	611.933	-0	-500
13.25	0.0569877	0.0569877	0.0569877	30.6927	1000	-6.52749e-07	16.7502	16.6624	14.2224	14.2224	16.7502	16.6624	14.2224	16.7502	16.6624	611.377	-0	-500
13.3333	0.0569877	0.0569877	0.0569877	30.6927	1000	-6.52749e-07	16.7352	16.6478	14.2095	14.2095	16.7352	16.6478	14.2095	16.7352	16.6478	610.824	-0	-500
13.4167	0.0569877	0.0569877	0.0569877	30.6927	1000	-6.52749e-07	16.7202	16.6333	14.1967	14.1967	16.7202	16.6333	14.1967	16.7202	16.6333	610.273	-0	-500
13.5	0.0569877	0.0569877	0.0569877	30.6927	1000	-6.52749e-07	16.7054	16.6189	14.1839	14.1839	16.7054	16.6189	14.1839	16.7054	16.6189	609.725	-0	-500
13.5833	0.0569877	0.0569877	0.0569877	30.6927	1000	-6.52749e-07	16.6906	16.6045	14.1713	14.1713	16.6906	16.6045	14.1713	16.6906	16.6045	609.18	-0	-500
13.6667	0.0569877	0.0569877	0.0569877	30.6927	1000	-6.52749e-07	16.6759	16.5902	14.1586	14.1586	16.6759	16.5902	14.1586	16.6759	16.5902	608.638	-0	-500
13.75	0.0569877	0.0569877	0.0569877	30.6927	1000	-6.52749e-07	16.6613	16.576	14.1461	14.1461	16.6613	16.576	14.1461	16.6613	16.576	608.098	-0	-500
13.8333	0.0569877	0.0569877	0.0569877	30.6927	1000	-6.52749e-07	16.6467	16.5619	14.1336	14.1336	16.6467	16.5619	14.1336	16.6467	16.5619	607.561	-0	-500
13.9167	0.0569877	0.0569877	0.0569877	30.6927	1000	-6.52749e-07	16.6322	16.5478	14.1212	14.1212	16.6322	16.5478	14.1212	16.6322	16.5478	607.027	-0	-500
14	0.0569877	0.0569877	0.0569877	30.6927	1000	-6.52749e-07	16.6178	16.5338	14.1088	14.1088	16.6178	16.5338	14.1088	16.6178	16.5338	606.495	-0	-500
14.0833	0.0569877	0.0569877	0.0569877	30.6927	1000	-6.52749e-07	16.6034	16.5199	14.0965	14.0965	16.6034	16.5199	14.0965	16.6034	16.5199	605.966	-0	-500
14.1667	0.0569877	0.0569877	0.0569877	30.6927	1000	-6.52749e-07	16.5892	16.5061	14.0842	14.0842	16.5892	16.5061	14.0842	16.5892	16.5061	605.439	-0	-500
14.25	0.0569877	0.0569877	0.0569877	30.6927	1000	-6.52749e-07	16.575	16.4923	14.0721	14.0721	16.575	16.4923	14.0721	16.575	16.4923	604.915	-0	-500
14.3333	0.0569877	0.0569877	0.0569877	30.6927	1000	-6.52749e-07	16.5608	16.4785	14.0599	14.0599	16.5608	16.4785	14.0599	16.5608	16.4785	604.394	-0	-500
14.4167	0.0569877	0.0569877	0.0569877	30.6927	1000	-6.52749e-07	16.5468	16.4649	14.0479	14.0479	16.5468	16.4649	14.0479	16.5468	16.4649	603.876	-0	-500
14.5	0.0569877	0.0569877	0.0569877	30.6927	1000	-6.52749e-07	16.5328	16.4513	14.0359	14.0359	16.5328	16.4513	14.0359	16.5328	16.4513	603.359	-0	-500
14.5833	0.0569877	0.0569877	0.0569877	30.6927	1000	-6.52749e-07	16.5189	16.4378	14.0239	14.0239	16.5189	16.4378	14.0239	16.5189	16.4378	602.846	-0	-500
14.6667	0.0569877	0.0569877	0.0569877	30.6927	1000	-6.52749e-07	16.505	16.4243	14.012	14.012	16.505	16.4243	14.012	16.505	16.4243	602.335	-0	-500
14.75	0.0569877	0.0569877	0.0569877	30.6927	1000	-6.52749e-07	16.4912	16.411	14.0002	14.0002	16.4912	16.411	14.0002	16.4912	16.411	601.827	-0	-500
14.8333	0.0569877	0.0569877	0.0569877	30.6927	1000	-6.52749e-07	16.4775	16.3976	13.9884	13.9884	16.4775	16.3976	13.9884	16.4775	16.3976	601.321	-0	-500
14.9167	0.0569877	0.0569877	0.0569877	30.6927	1000	-6.52749e-07	16.4639	16.3844	13.9767	13.9767	16.4639	16.3844	13.9767	16.4639	16.3844	600.817	-0	-500
15	0.0569877	0.0569877	0.0569877	30.6927	1000	-6.52749e-07	16.4503	16.3712	13.9651	13.9651	16.4503	16.3712	13.9651	16.4503	16.3712	600.317	-0	-500
15.0833	0.0569877	0.0569877	0.0569877	30.6927	1000	-6.52749e-07	16.4368	16.3581	13.9535	13.9535	16.4368	16.3581	13.9535	16.4368	16.3581	599.818	-0	-500
15.1667	0.0569877	0.0569877	0.0569877	30.6927	1000	-6.52749e-07	16.4233	16.345	13.9419	13.9419	16.4233	16.345	13.9419	16.4233	16.345	599.322	-0	-500
15.25	0.0569877	0.0569877	0.0569877	30.6927	1000	-6.52749e-07	16.4099	16.332	13.9305	13.9305	16.4099	16.332	13.9305	16.4099	16.332	598.829	-0	-500
15.3333	0.0569877	0.0569877	0.0569877	30.6927	1000	-6.52749e-07	16.3966	16.3191	13.919	13.919	16.3966	16.3191	13.919	16.3966	16.3191	598.338	-0	-500
15.4167	0.0569877	0.0569877	0.0569877	30.6927	1000	-6.52749e-07	16.3834	16.3062	13.9077	13.9077	16.3834	16.3062	13.9077	16.3834	16.3062	597.849	-0	-500
15.5	0.0569877	0.0569877	0.0569877	30.6927	1000	-6.52749e-07	16.3702	16.2935	13.8964	13.8964	16.3702	16.2935	13.8964	16.3702	16.2935	597.363	-0	-500
15.5833	0.0569877	0.0569877	0.0569877	30.6927	1000	-6.52749e-07	16.3571	16.2807	13.8851	13.8851	16.3571	16.2807	13.8851	16.3571	16.2807	596.879	-0	-500
15.6667	0.0569877	0.0569877	0.0569877	30.6927	1000	-6.52749e-07	16.344	16.268	13.8739	13.8739	16.344	16.268	13.8739	16.344	16.268	596.398	-0	-500
15.75	0.0569877	0.0569877	0.0569877	30.6927	1000	-6.52749e-07	16.3311	16.2554	13.8628	13.8628	16.3311	16.2554	13.8628	16.3311	16.2554	595.919	-0	-500
15.8333	0.0569877	0.0569877	0.0569877	30.6927	1000	-6.52749e-07	16.3181	16.2429	13.8517	13.8517	16.3181	16.2429	13.8517	16.3181	16.2429	595.443	-0	-500
15.9167	0.0569877	0.0569877	0.0569877	30.6927	1000	-6.52749e-07	16.3053	16.2304	13.8407	13.8407	16.3053	16.2304	13.8407	16.3053	16.2304	594.969	-0	-500
16	0.0569877	0.0569877	0.0569877	30.6927	1000	-6.52749e-07	16.2925	16.218	13.8297	13.8297	16.2925	16.218	13.8297	16.2925	16.218	594.497	-0	-500
16.0833	0.0569877	0.0569877	0.0569877	30.6927	1000	-6.52749e-07	16.2798	16.2056	13.8188	13.8188	16.2798	16.2056	13.8188	16.2798	16.2056	594.027	-0	-500
16.1667	0.0569877	0.0569877	0.0569877	30.6927	1000	-6.52749e-07	16.2671	16.1933	13.8079	13.8079	16.2671	16.1933	13.8079	16.2671	16.1933	593.56	-0	-500
16.25	0.0569877	0.0569877	0.0569877	30.6927	1000	-6.52749e-07	16.2545	16.1811	13.7971	13.7971	16.2545	16.1811	13.7971	16.2545	16.1811	593.095	-0	-500
16.3333	0.0569877	0.0569877	0.0569877	30.6927	1000	-6.52749e-07	16.242	16.1689	13.7863	13.7863	16.242	16.1689	13.7863	16.242	16.1689	592.633	-0	-500
16.4167	0.0569877	0.0569877	0.0569877	30.6927	1000	-6.52749e-07	16.2295	16.1568	13.7756	13.7756	16.2295	16.1568	13.7756	16.2295	16.1568	592.173	-0	-500
16.5	0.0569877	0.0569877	0.0569877	30.6927	1000	-6.52749e-07	16.2171	16.1448	13.765	13.765	16.2171	16.1448	13.765	16.2171	16.1448	591.715	-0	-500
16.5833	0.0569877	0.0569877	0.0569877	30.6927	1000	-6.52749e-07	16.2047	16.1328	13.7544	13.7544	16.2047	16.1328	13.7544	16.2047	16.1328	591.259	-0	-500
16.6667	0.0569877	0.0569877	0.0569877	30.6927	1000	-6.52749e-07	16.1924	16.1208	13.7438	13.7438	16.1924	16.1208	13.7438	16.1924	16.1208	590.806	-0	-500
16.75	0.0569877	0.0569877	0.0569877	30.6927	1000	-6.52749e-07	16.1802	16.109	13.7333	13.7333	16.1802	16.109	13.7333	16.1802	16.109	590.355	-0	-500
16.8333	0.0569877	0.0569877	0.0569877	30.6927	1000	-6.52749e-07	16.168	16.0971	13.7229	13.7229	16.168	16.0971	13.7229	16.168	16.0971	589.906	-0	-500
16.9167	0.0569877	0.0569877	0.0569877	30.6927	1000	-6.52749e-07	16.1559	16.0854	13.7125	13.7125	16.1559	16.0854	13.7125	16.1559	16.0854	589.459	-0	-500
17	0.0569877	0.0569877	0.0569877	30.6927	1000	-6.52749e-07	16.1439	16.0737	13.7022	13.7022	16.1439	16.0737	13.7022	16.1439	16.0737	589.015	-0	-500
17.0833	0.0569877	0.0569877	0.0569877	30.6927	1000	-6.52749e-07	16.1319	16.062	13.6919	13.6919	16.1319	16.062	13.6919	16.1319	16.062	588.572	-0	-500
17.1667	0.0569877	0.0569877	0.0569877	30.6927	1000	-6.52749e-07	16.1199	16.0505	13.6816	13.6816	16.1199	16.0505	13.6816	16.1199	16.0505	588.132	-0	-500
17.25	0.0569877	0.0569877	0.0569877	30.6927	1000	-6.52749e-07	16.1081	16.0389	13.6714	13.6714	16.1081	16.0389	13.6714	16.1081	16.0389	587.694	-0	-500
17.3333	0.0569877	0.0569877	0.0569877	30.6927	1000	-6.52749e-07	16.0962	16.0275	13.6613	13.6613	16.0962	16.0275	13.6613	16.0962	16.0275	587.259	-0	-500
17.4167	0.0569877	0.0569877	0.0569877	30.6927	1000	-6.52749e-07	16.0845	16.016	13.6512	13.6512	16.0845	16.016	13.6512	16.0845	16.016	586.825	-0	-500
17.5	0.0569877	0.0569877	0.0569877	30.6927	1000	-6.52749e-07	16.0728	16.0047	13.6412	13.6412	16.0728	16.0047	13.6412	16.0728	16.0047	586.394	-0	-500
17.5833	0.0569877	0.0569877	0.0569877	30.6927	1000	-6.52749e-07	16.0612	15.9934	13.6312	13.6312	16.0612	15.9934	13.6312	16.0612	15.9934	585.965	-0	-500
17.6667	0.0569877	0.0569877	0.0569877	30.6927	1000	-6.52749e-07	16.0496	15.9822	13.6213	13.6213	16.0496	15.9822	13.6213	16.0496	15.9822	585.538	-0	-500
17.75	0.0569877	0.0569877	0.0569877	30.6927	1000	-6.52749e-07	16.0381	15.971	13.6114	13.6114	16.0381	15.971	13.6114	16.0381	15.971	585.113	-0	-500
17.8333	0.0569877	0.0569877	0.0569877	30.6927	1000	-6.52749e-07	16.0266	15.9598	13.6016	13.6016	16.0266	15.9598	13.6016	16.0266	15.9598	584.69	-0	-500
17.9167	0.0569877	0.0569877	0.0569877	30.6927	1000	-6.52749e-07	16.0152	15.9488	13.5918	13.5918	16.0152	15.9488	13.5918	16.0152	15.9488	584.269	-0	-500
18	0.0569877	0.0569877	0.0569877	30.6927	1000	-6.52749e-07	16.0038	15.9377	13.582	13.582	16.0038	15.9377	13.582	16.0038	15.9377	583.85	-0	-500
18.0833	0.0569877	0.0569877	0.0569877	30.6927	1000	-6.52749e-07	15.9925	15.9268	13.5723	13.5723	15.9925	15.9268	13.5723	15.9925	15.9268	583.434	-0	-500
18.1667	0.0569877	0.0569877	0.0569877	30.6927	1000	-6.52749e-07	15.9813	15.9159	13.5627	13.5627	15.9813	15.9159	13.5627	15.9813	15.9159	583.019	-0	-500
18.25	0.0569877	0.0569877	0.0569877	30.6927	1000	-6.52749e-07	15.9701	15.905	13.5531	13.5531	15.9701	15.905	13.5531	15.9701	15.905	582.607	-0	-500
18.3333	0.0569877	0.0569877	0.0569877	30.6927	1000	-6.52749e-07	15.959	15.8942	13.5435	13.5435	15.959	15.8942	13.5435	15.959	15.8942	582.197	-0	-500
18.4167	0.0569877	0.0569877	0.0569877	30.6927	1000	-6.52749e-07	15.9479	15.8834	13.534	13.534	15.9479	15.8834	13.534	15.9479	15.8834	581.788	-0	-500
18.5	0.0569877	0.0569877	0.0569877	30.6927	1000	-6.52749e-07	15.9369	15.8728	13.5246	13.5246	15.9369	15.8728	13.5246	15.9369	15.8728	581.382	-0	-500
18.5833	0.0569877	0.0569877	0.0569877	30.6927	1000	-6.52749e-07	15.9259	15.8621	13.5152	13.5152	15.9259	15.8621	13.5152	15.9259	15.8621	580.978	-0	-500
18.6667	0.0569877	0.0569877	0.0569877	30.6927	1000	-6.52749e-07	15.915	15.8515	13.5058	13.5058	15.915	15.8515	13.5058	15.915	15.8515	580.575	-0	-500
18.75	0.0569877	0.0569877	0.0569877	30.6927	1000	-6.52749e-07	15.9042	15.841	13.4965	13.4965	15.9042	15.841	13.4965	15.9042	15.841	580.175	-0	-500
18.8333	0.0569877	0.0569877	0.0569877	30.6927	1000	-6.52749e-07	15.8934	15.8305	13.4873	13.4873	15.8934	15.8305	13.4873	15.8934	15.8305	579.777	-0	-500
18.9167	0.0569877	0.0569877	0.0569877	30.6927	1000	-6.52749e-07	15.8826	15.8201	13.478	13.478	15.8826	15.8201	13.478	15.8826	15.8201	579.38	-0	-500
19	0.0569877	0.0569877	0.0569877	30.6927	1000	-6.52749e-07	15.8719	15.8097	13.4689	13.4689	15.8719	15.8097	13.4689	15.8719	15.8097	578.986	-0	-500
19.0833	0.0569877	0.0569877	0.0569877	30.6927	1000	-6.52749e-07	15.8613	15.7994	13.4597	13.4597	15.8613	15.7994	13.4597	15.8613	15.7994	578.594	-0	-500
19.1667	0.0569877	0.0569877	0.0569877	30.6927	1000	-6.52749e-07	15.8507	15.7891	13.4506	13.4506	15.8507	15.7891	13.4506	15.8507	15.7891	578.203	-0	-500
19.25	0.0569877	0.0569877	0.0569877	30.6927	1000	-6.52749e-07	15.8402	15.7788	13.4416	13.4416	15.8402	15.7788	13.4416	15.8402	15.7788	577.815	-0	-500
19.3333	0.0569877	0.0569877	0.0569877	30.6927	1000	-6.52749e-07	15.8297	15.7687	13.4326	13.4326	15.8297	15.7687	13.4326	15.8297	15.7687	577.428	-0	-500
19.4167	0.0569877	0.0569877	0.0569877	30.6927	1000	-6.52749e-07	15.8193	15.7585	13.4237	13.4237	15.8193	15.7585	13.4237	15.8193	15.7585	577.043	-0	-500
19.5	0.0569877	0.0569877	0.0569877	30.6927	1000	-6.52749e-07	15.8089	15.7485	13.4148	13.4148	15.8089	15.7485	13.4148	15.8089	15.7485	576.661	-0	-500
19.5833	0.0569877	0.0569877	0.0569877	30.6927	1000	-6.52749e-07	15.7986	15.7384	13.4059	13.4059	15.7986	15.7384	13.4059	15.7986	15.7384	576.28	-0	-500
19.6667	0.0569877	0.0569877	0.0569877	30.6927	1000	-6.52749e-07	15.7883	15.7285	13.3971	13.3971	15.7883	15.7285	13.3971	15.7883	15.7285	575.901	-0	-500
19.75	0.0569877	0.0569877	0.0569877	30.6927	1000	-6.52749e-07	15.7781	15.7185	13.3883	13.3883	15.7781	15.7185	13.3883	15.7781	15.7185	575.524	-0	-500
19.8333	0.0569877	0.0569877	0.0569877	30.6927	1000	-6.52749e-07	15.7679	15.7087	13.3796	13.3796	15.7679	15.7087	13.3796	15.7679	15.7087	575.148	-0	-500
19.9167	0.0569877	0.0569877	0.0569877	30.6927	1000	-6.52749e-07	15.7578	15.6988	13.3709	13.3709	15.7578	15.6988	13.3709	15.7578	15.6988	574.775	-0	-500
20	0.0569877	0.0569877	0.0569877	30.6927	1000	-6.52749e-07	15.7477	15.6891	13.3623	13.3623	15.7477	15.6891	13.3623	15.7477	15.6891	574.404	-0	-500
20.0833	0.0569877	0.0569877	0.0569877	30.6927	1000	-6.52749e-07	15.7377	15.6793	13.3537	13.3537	15.7377	15.6793	13.3537	15.7377	15.6793	574.034	-0	-500
20.1667	0.0569877	0.0569877	0.0569877	30.6927	1000	-6.52749e-07	15.7277	15.6696	13.3451	13.3451	15.7277	15.6696	13.3451	15.7277	15.6696	573.666	-0	-500
20.25	0.0569877	0.0569877	0.0569877	30.6927	1000	-6.52749e-07	15.7178	15.66	13.3366	13.3366	15.7178	15.66	13.3366	15.7178	15.66	573.3	-0	-500
20.3333	0.0569877	0.0569877	0.0569877	30.6927	1000	-6.52749e-07	15.7079	15.6504	13.3281	13.3281	15.7079	15.6504	13.3281	15.7079	15.6504	572.936	-0	-500
20.4167	0.0569877	0.0569877	0.0569877	30.6927	1000	-6.52749e-07	15.6981	15.6409	13.3197	13.3197	15.6981	15.6409	13.3197	15.6981	15.6409	572.574	-0	-500
20.5	0.0569877	0.0569877	0.0569877	30.6927	1000	-6.52749e-07	15.6883	15.6314	13.3113	13.3113	15.6883	15.6314	13.3113	15.6883	15.6314	572.213	-0	-500
20.5833	0.0569877	0.0569877	0.0569877	30.6927	1000	-6.52749e-07	15.6786	15.6219	13.303	13.303	15.6786	15.6219	13.303	15.6786	15.6219	571.854	-0	-500
20.6667	0.0569877	0.0569877	0.0569877	30.6927	1000	-6.52749e-07	15.6689	15.6126	13.2947	13.2947	15.6689	15.6126	13.2947	15.6689	15.6126	571.497	-0	-500
20.75	0.0569877	0.0569877	0.0569877	30.6927	1000	-6.52749e-07	15.6593	15.6032	13.2864	13.2864	15.6593	15.6032	13.2864	15.6593	15.6032	571.142	-0	-500
20.8333	0.0569877	0.0569877	0.0569877	30.6927	1000	-6.52749e-07	15.6497	15.5939	13.2782	13.2782	15.6497	15.5939	13.2782	15.6497	15.5939	570.789	-0	-500
20.9167	0.0569877	0.0569877	0.0569877	30.6927	1000	-6.52749e-07	15.6402	15.5846	13.27	13.27	15.6402	15.5846	13.27	15.6402	15.5846	570.437	-0	-500
21	0.0569877	0.0569877	0.0569877	30.6927	1000	-6.52749e-07	15.6307	15.5754	13.2619	13.2619	15.6307	15.5754	13.2619	15.6307	15.5754	570.087	-0	-500
21.0833	0.0569877	0.0569877	0.0569877	30.6927	1000	-6.52749e-07	15.6212	15.5663	13.2538	13.2538	15.6212	15.5663	13.2538	15.6212	15.5663	569.739	-0	-500
21.1667	0.0569877	0.0569877	0.0569877	30.6927	1000	-6.52749e-07	15.6118	15.5571	13.2457	13.2457	15.6118	15.5571	13.2457	15.6118	15.5571	569.392	-0	-500
21.25	0.0569877	0.0569877	0.0569877	30.6927	1000	-6.52749e-07	15.6025	15.5481	13.2377	13.2377	15.6025	15.5481	13.2377	15.6025	15.5481	569.048	-0	-500
21.3333	0.0569877	0.0569877	0.0569877	30.6927	1000	-6.52749e-07	15.5932	15.539	13.2297	13.2297	15.5932	15.539	13.2297	15.5932	15.539	568.705	-0	-500
21.4167	0.0569877	0.0569877	0.0569877	30.6927	1000	-6.52749e-07	15.5839	15.53	13.2217	13.2217	15.5839	15.53	13.2217	15.5839	15.53	568.363	-0	-500
21.5	0.0569877	0.0569877	0.0569877	30.6927	1000	-6.52749e-07	15.5747	15.5211	13.2138	13.2138	15.5747	15.5211	13.2138	15.5747	15.5211	568.024	-0	-500
21.5833	0.0569877	0.0569877	0.0569877	30.6927	1000	-6.52749e-07	15.5656	15.5122	13.206	13.206	15.5656	15.5122	13.206	15.5656	15.5122	567.686	-0	-500
21.6667	0.0569877	0.0569877	0.0569877	30.6927	1000	-6.52749e-07	15.5565	15.5034	13.1982	13.1982	15.5565	15.5034	13.1982	15.5565	15.5034	567.35	-0	-500
21.75	0.0569877	0.0569877	0.0569877	30.6927	1000	-6.52749e-07	15.5474	15.4946	13.1904	13.1904	15.5474	15.4946	13.1904	15.5474	15.4946	567.015	-0	-500
21.8333	0.0569877	0.0569877	0.0569877	30.6927	1000	-6.52749e-07	15.5384	15.4858	13.1826	13.1826	15.5384	15.4858	13.1826	15.5384	15.4858	566.682	-0	-500
21.9167	0.0569877	0.0569877	0.0569877	30.6927	1000	-6.52749e-07	15.5294	15.4771	13.1749	13.1749	15.5294	15.4771	13.1749	15.5294	15.4771	566.351	-0	-500
22	0.0569877	0.0569877	0.0569877	30.6927	1000	-6.52749e-07	15.5204	15.4684	13.1673	13.1673	15.5204	15.4684	13.1673	15.5204	15.4684	566.021	-0	-500
22.0833	0.0569877	0.0569877	0.0569877	30.6927	1000	-6.52749e-07	15.5115	15.4598	13.1596	13.1596	15.5115	15.4598	13.1596	15.5115	15.4598	565.693	-0	-500
22.1667	0.0569877	0.0569877	0.0569877	30.6927	1000	-6.52749e-07	15.5027	15.4512	13.152	13.152	15.5027	15.4512	13.152	15.5027	15.4512	565.367	-0	-500
22.25	0.0569877	0.0569877	0.0569877	30.6927	1000	-6.52749e-07	15.4939	15.4426	13.1445	13.1445	15.4939	15.4426	13.1445	15.4939	15.4426	565.042	-0	-500
22.3333	0.0569877	0.0569877	0.0569877	30.6927	1000	-6.52749e-07	15.4851	15.4341	13.137	13.137	15.4851	15.4341	13.137	15.4851	15.4341	564.719	-0	-500
22.4167	0.0569877	0.0569877	0.0569877	30.6927	1000	-6.52749e-07	15.4764	15.4256	13.1295	13.1295	15.4764	15.4256	13.1295	15.4764	15.4256	564.397	-0	-500
22.5	0.0569877	0.0569877	0.0569877	30.6927	1000	-6.52749e-07	15.4677	15.4172	13.122	13.122	15.4677	15.4172	13.122	15.4677	15.4172	564.077	-0	-500
22.5833	0.0569877	0.0569877	0.0569877	30.6927	1000	-6.52749e-07	15.4591	15.4088	13.1146	13.1146	15.4591	15.4088	13.1146	15.4591	15.4088	563.759	-0	-500
22.6667	0.0569877	0.0569877	0.0569877	30.6927	1000	-6.52749e-07	15.4505	15.4005	13.1073	13.1073	15.4505	15.4005	13.1073	15.4505	15.4005	563.442	-0	-500
22.75	0.0569877	0.0569877	0.0569877	30.6927	1000	-6.52749e-07	15.442	15.3922	13.0999	13.0999	15.442	15.3922	13.0999	15.442	15.3922	563.127	-0	-500
22.8333	0.0569877	0.0569877	0.0569877	30.6927	1000	-6.52749e-07	15.4335	15.384	13.0926	13.0926	15.4335	15.384	13.0926	15.4335	15.384	562.813	-0	-500
22.9167	0.0569877	0.0569877	0.0569877	30.6927	1000	-6.52749e-07	15.425	15.3757	13.0854	13.0854	15.425	15.3757	13.0854	15.425	15.3757	562.501	-0	-500
23	0.0569877	0.0569877	0.0569877	30.6927	1000	-6.52749e-07	15.4166	15.3676	13.0782	13.0782	15.4166	15.3676	13.0782	15.4166	15.3676	562.191	-0	-500
23.0833	0.0569877	0.0569877	0.0569877	30.6927	1000	-6.52749e-07	15.4082	15.3594	13.071	13.071	15.4082	15.3594	13.071	15.4082	15.3594	561.882	-0	-500
23.1667	0.0569877	0.0569877	0.0569877	30.6927	1000	-6.52749e-07	15.3999	15.3513	13.0638	13.0638	15.3999	15.3513	13.0638	15.3999	15.3513	561.575	-0	-500
23.25	0.0569877	0.0569877	0.0569877	30.6927	1000	-6.52749e-07	15.3916	15.3433	13.0567	13.0567	15.3916	15.3433	13.0567	15.3916	15.3433	561.269	-0	-500
23.3333	0.0569877	0.0569877	0.0569877	30.6927	1000	-6.52749e-07	15.3833	15.3353	13.0496	13.0496	15.3833	15.3353	13.0496	15.3833	15.3353	560.964	-0	-500
23.4167	0.0569877	0.0569877	0.0569877	30.6927	1000	-6.52749e-07	15.3751	15.3273	13.0426	13.0426	15.3751	15.3273	13.0426	15.3751	15.3273	560.661	-0	-500
23.5	0.0569877	0.0569877	0.0569877	30.6927	1000	-6.52749e-07	15.3669	15.3194	13.0356	13.0356	15.3669	15.3194	13.0356	15.3669	15.3194	560.36	-0	-500
23.5833	0.0569877	0.0569877	0.0569877	30.6927	1000	-6.52749e-07	15.3588	15.3115	13.0286	13.0286	15.3588	15.3115	13.0286	15.3588	15.3115	560.06	-0	-500
23.6667	0.0569877	0.0569877	0.0569877	30.6927	1000	-6.52749e-07	15.3507	15.3036	13.0217	13.0217	15.3507	15.3036	13.0217	15.3507	15.3036	559.762	-0	-500
23.75	0.0569877	0.0569877	0.0569877	30.6927	1000	-6.52749e-07	15.3427	15.2958	13.0147	13.0147	15.3427	15.2958	13.0147	15.3427	15.2958	559.465	-0	-500
23.8333	0.0569877	0.0569877	0.0569877	30.6927	1000	-6.52749e-07	15.3347	15.288	13.0079	13.0079	15.3347	15.288	13.0079	15.3347	15.288	559.169	-0	-500
23.9167	0.0569877	0.0569877	0.0569877	30.6927	1000	-6.52749e-07	15.3267	15.2803	13.001	13.001	15.3267	15.2803	13.001	15.3267	15.2803	558.875	-0	-500
24	0.0569877	0.0569877	0.0569877	30.6927	1000	-6.52749e-07	15.3188	15.2726	12.9942	12.9942	15.3188	15.2726	12.9942	15.3188	15.2726	558.583	-0	-500
24.0833	0.0569877	0.0569877	0.0569877	30.6927	1000	-6.52749e-07	15.3109	15.2649	12.9875	12.9875	15.3109	15.2649	12.9875	15.3109	15.2649	558.292	-0	-500
24.1667	0.0569877	0.0569877	0.0569877	30.6927	1000	-6.52749e-07	15.303	15.2573	12.9807	12.9807	15.303	15.2573	12.9807	15.303	15.2573	558.002	-0	-500
24.25	0.0569877	0.0569877	0.0569877	30.6927	1000	-6.52749e-07	15.2952	15.2497	12.974	12.974	15.2952	15.2497	12.974	15.2952	15.2497	557.714	-0	-500
24.3333	0.0569877	0.0569877	0.0569877	30.6927	1000	-6.52749e-07	15.2874	15.2422	12.9673	12.9673	15.2874	15.2422	12.9673	15.2874	15.2422	557.427	-0	-500
24.4167	0.0569877	0.0569877	0.0569877	30.6927	1000	-6.52749e-07	15.2797	15.2347	12.9607	12.9607	15.2797	15.2347	12.9607	15.2797	15.2347	557.142	-0	-500
24.5	0.0569877	0.0569877	0.0569877	30.6927	1000	-6.52749e-07	15.272	15.2272	12.9541	12.9541	15.272	15.2272	12.9541	15.272	15.2272	556.858	-0	-500
24.5833	0.0569877	0.0569877	0.0569877	30.6927	1000	-6.52749e-07	15.2643	15.2197	12.9475	12.9475	15.2643	15.2197	12.9475	15.2643	15.2197	556.576	-0	-500
24.6667	0.0569877	0.0569877	0.0569877	30.6927	1000	-6.52749e-07	15.2567	15.2123	12.941	12.941	15.2567	15.2123	12.941	15.2567	15.2123	556.295	-0	-500
24.75	0.0569877	0.0569877	0.0569877	30.6927	1000	-6.52749e-07	15.2491	15.205	12.9345	12.9345	15.2491	15.205	12.9345	15.2491	15.205	556.015	-0	-500
24.8333	0.0569877	0.0569877	0.0569877	30.6927	1000	-6.52749e-07	15.2416	15.1977	12.928	12.928	15.2416	15.1977	12.928	15.2416	15.1977	555.737	-0	-500
24.9167	0.0569877	0.0569877	0.0569877	30.6927	1000	-6.52749e-07	15.2341	15.1904	12.9216	12.9216	15.2341	15.1904	12.9216	15.2341	15.1904	555.46	-0	-500
25	0.0569877	0.0569877	0.0569877	30.6927	1000	-6.52749e-07	15.2266	15.1831	12.9152	12.9152	15.2266	15.1831	12.9152	15.2266	15.1831	555.184	-0	-500
25.0833	0.0569877	0.0569877	0.0569877	30.6927	1000	-6.52749e-07	15.2192	15.1759	12.9088	12.9088	15.2192	15.1759	12.9088	15.2192	15.1759	554.91	-0	-500
25.1667	0.0569877	0.0569877	0.0569877	30.6927	1000	-6.52749e-07	15.2118	15.1687	12.9024	12.9024	15.2118	15.1687	12.9024	15.2118	15.1687	554.637	-0	-500
25.25	0.0569877	0.0569877	0.0569877	30.6927	1000	-6.52749e-07	15.2044	15.1616	12.8961	12.8961	15.2044	15.1616	12.8961	15.2044	15.1616	554.366	-0	-500
25.3333	0.0569877	0.0569877	0.0569877	30.6927	1000	-6.52749e-07	15.1971	15.1545	12.8898	12.8898	15.1971	15.1545	12.8898	15.1971	15.1545	554.096	-0	-500
25.4167	0.0569877	0.0569877	0.0569877	30.6927	1000	-6.52749e-07	15.1898	15.1474	12.8836	12.8836	15.1898	15.1474	12.8836	15.1898	15.1474	553.827	-0	-500
25.5	0.0569877	0.0569877	0.0569877	30.6927	1000	-6.52749e-07	15.1826	15.1403	12.8774	12.8774	15.1826	15.1403	12.8774	15.1826	15.1403	553.56	-0	-500
25.5833	0.0569877	0.0569877	0.0569877	30.6927	1000	-6.52749e-07	15.1754	15.1333	12.8712	12.8712	15.1754	15.1333	12.8712	15.1754	15.1333	553.294	-0	-500
25.6667	0.0569877	0.0569877	0.0569877	30.6927	1000	-6.52749e-07	15.1682	15.1264	12.865	12.865	15.1682	15.1264	12.865	15.1682	15.1264	553.029	-0	-500
25.75	0.0569877	0.0569877	0.0569877	30.6927	1000	-6.52749e-07	15.161	15.1194	12.8589	12.8589	15.161	15.1194	12.8589	15.161	15.1194	552.765	-0	-500
25.8333	0.0569877	0.0569877	0.0569877	30.6927	1000	-6.52749e-07	15.1539	15.1125	12.8528	12.8528	15.1539	15.1125	12.8528	15.1539	15.1125	552.503	-0	-500
25.9167	0.0569877	0.0569877	0.0569877	30.6927	1000	-6.52749e-07	15.1469	15.1057	12.8467	12.8467	15.1469	15.1057	12.8467	15.1469	15.1057	552.242	-0	-500
26	0.0569877	0.0569877	0.0569877	30.6927	1000	-6.52749e-07	15.1398	15.0988	12.8407	12.8407	15.1398	15.0988	12.8407	15.1398	15.0988	551.983	-0	-500
26.0833	0.0569877	0.0569877	0.0569877	30.6927	1000	-6.52749e-07	15.1328	15.092	12.8347	12.8347	15.1328	15.092	12.8347	15.1328	15.092	551.725	-0	-500
26.1667	0.0569877	0.0569877	0.0569877	30.6927	1000	-6.52749e-07	15.1259	15.0853	12.8287	12.8287	15.1259	15.0853	12.8287	15.1259	15.0853	551.468	-0	-500
26.25	0.0569877	0.0569877	0.0569877	30.6927	1000	-6.52749e-07	15.1189	15.0785	12.8228	12.8228	15.1189	15.0785	12.8228	15.1189	15.0785	551.212	-0	-500
26.3333	0.0569877	0.0569877	0.0569877	30.6927	1000	-6.52749e-07	15.112	15.0718	12.8168	12.8168	15.112	15.0718	12.8168	15.112	15.0718	550.957	-0	-500
26.4167	0.0569877	0.0569877	0.0569877	30.6927	1000	-6.52749e-07	15.1052	15.0652	12.8109	12.8109	15.1052	15.0652	12.8109	15.1052	15.0652	550.704	-0	-500
26.5	0.0569877	0.0569877	0.0569877	30.6927	1000	-6.52749e-07	15.0983	15.0586	12.8051	12.8051	15.0983	15.0586	12.8051	15.0983	15.0586	550.452	-0	-500
26.5833	0.0569877	0.0569877	0.0569877	30.6927	1000	-6.52749e-07	15.0915	15.052	12.7993	12.7993	15.0915	15.052	12.7993	15.0915	15.052	550.202	-0	-500
26.6667	0.0569877	0.0569877	0.0569877	30.6927	1000	-6.52749e-07	15.0848	15.0454	12.7935	12.7935	15.0848	15.0454	12.7935	15.0848	15.0454	549.952	-0	-500
26.75	0.0569877	0.0569877	0.0569877	30.6927	1000	-6.52749e-07	15.078	15.0389	12.7877	12.7877	15.078	15.0389	12.7877	15.078	15.0389	549.704	-0	-500
26.8333	0.0569877	0.0569877	0.0569877	30.6927	1000	-6.52749e-07	15.0713	15.0324	12.7819	12.7819	15.0713	15.0324	12.7819	15.0713	15.0324	549.457	-0	-500
26.9167	0.0569877	0.0569877	0.0569877	30.6927	1000	-6.52749e-07	15.0647	15.0259	12.7762	12.7762	15.0647	15.0259	12.7762	15.0647	15.0259	549.211	-0	-500
27	0.0569877	0.0569877	0.0569877	30.6927	1000	-6.52749e-07	15.0581	15.0195	12.7705	12.7705	15.0581	15.0195	12.7705	15.0581	15.0195	548.967	-0	-500
27.0833	0.0569877	0.0569877	0.0569877	30.6927	1000	-6.52749e-07	15.0515	15.013	12.7649	12.7649	15.0515	15.013	12.7649	15.0515	15.013	548.724	-0	-500
27.1667	0.0569877	0.0569877	0.0569877	30.6927	1000	-6.52749e-07	15.0449	15.0067	12.7592	12.7592	15.0449	15.0067	12.7592	15.0449	15.0067	548.482	-0	-500
27.25	0.0569877	0.0569877	0.0569877	30.6927	1000	-6.52749e-07	15.0384	15.0003	12.7536	12.7536	15.0384	15.0003	12.7536	15.0384	15.0003	548.241	-0	-500
27.3333	0.0569877	0.0569877	0.0569877	30.6927	1000	-6.52749e-07	15.0319	14.994	12.7481	12.7481	15.0319	14.994	12.7481	15.0319	14.994	548.001	-0	-500
27.4167	0.0569877	0.0569877	0.0569877	30.6927	1000	-6.52749e-07	15.0254	14.9877	12.7425	12.7425	15.0254	14.9877	12.7425	15.0254	14.9877	547.763	-0	-500
27.5	0.0569877	0.0569877	0.0569877	30.6927	1000	-6.52749e-07	15.019	14.9815	12.737	12.737	15.019	14.9815	12.737	15.019	14.9815	547.525	-0	-500
27.5833	0.0569877	0.0569877	0.0569877	30.6927	1000	-6.52749e-07	15.0126	14.9753	12.7315	12.7315	15.0126	14.9753	12.7315	15.0126	14.9753	547.289	-0	-500
27.6667	0.0569877	0.0569877	0.0569877	30.6927	1000	-6.52749e-07	15.0062	14.9691	12.726	12.726	15.0062	14.9691	12.726	15.0062	14.9691	547.054	-0	-500
27.75	0.0569877	0.0569877	0.0569877	30.6927	1000	-6.52749e-07	14.9999	14.9629	12.7206	12.7206	14.9999	14.9629	12.7206	14.9999	14.9629	546.821	-0	-500
27.8333	0.0569877	0.0569877	0.0569877	30.6927	1000	-6.52749e-07	14.9936	14.9568	12.7152	12.7152	14.9936	14.9568	12.7152	14.9936	14.9568	546.588	-0	-500
27.9167	0.0569877	0.0569877	0.0569877	30.6927	1000	-6.52749e-07	14.9873	14.9507	12.7098	12.7098	14.9873	14.9507	12.7098	14.9873	14.9507	546.357	-0	-500
28	0.0569877	0.0569877	0.0569877	30.6927	1000	-6.52749e-07	14.981	14.9447	12.7045	12.7045	14.981	14.9447	12.7045	14.981	14.9447	546.126	-0	-500
28.0833	0.0569877	0.0569877	0.0569877	30.6927	1000	-6.52749e-07	14.9748	14.9386	12.6991	12.6991	14.9748	14.9386	12.6991	14.9748	14.9386	545.897	-0	-500
28.1667	0.0569877	0.0569877	0.0569877	30.6927	1000	-6.52749e-07	14.9686	14.9326	12.6938	12.6938	14.9686	14.9326	12.6938	14.9686	14.9326	545.669	-0	-500
28.25	0.0569877	0.0569877	0.0569877	30.6927	1000	-6.52749e-07	14.9625	14.9267	12.6885	12.6885	14.9625	14.9267	12.6885	14.9625	14.9267	545.442	-0	-500
28.3333	0.0569877	0.0569877	0.0569877	30.6927	1000	-6.52749e-07	14.9564	14.9207	12.6833	12.6833	14.9564	14.9207	12.6833	14.9564	14.9207	545.216	-0	-500
28.4167	0.0569877	0.0569877	0.0569877	30.6927	1000	-6.52749e-07	14.9503	14.9148	12.6781	12.6781	14.9503	14.9148	12.6781	14.9503	14.9148	544.992	-0	-500
28.5	0.0569877	0.0569877	0.0569877	30.6927	1000	-6.52749e-07	14.9442	14.9089	12.6729	12.6729	14.9442	14.9089	12.6729	14.9442	14.9089	544.768	-0	-500
28.5833	0.0569877	0.0569877	0.0569877	30.6927	1000	-6.52749e-07	14.9382	14.9031	12.6677	12.6677	14.9382	14.9031	12.6677	14.9382	14.9031	544.546	-0	-500
28.6667	0.0569877	0.0569877	0.0569877	30.6927	1000	-6.52749e-07	14.9322	14.8972	12.6625	12.6625	14.9322	14.8972	12.6625	14.9322	14.8972	544.324	-0	-500
28.75	0.0569877	0.0569877	0.0569877	30.6927	1000	-6.52749e-07	14.9262	14.8914	12.6574	12.6574	14.9262	14.8914	12.6574	14.9262	14.8914	544.104	-0	-500
28.8333	0.0569877	0.0569877	0.0569877	30.6927	1000	-6.52749e-07	14.9203	14.8857	12.6523	12.6523	14.9203	14.8857	12.6523	14.9203	14.8857	543.885	-0	-500
28.9167	0.0569877	0.0569877	0.0569877	30.6927	1000	-6.52749e-07	14.9144	14.8799	12.6472	12.6472	14.9144	14.8799	12.6472	14.9144	14.8799	543.667	-0	-500
29	0.0569877	0.0569877	0.0569877	30.6927	1000	-6.52749e-07	14.9085	14.8742	12.6422	12.6422	14.9085	14.8742	12.6422	14.9085	14.8742	543.45	-0	-500
29.0833	0.0569877	0.0569877	0.0569877	30.6927	1000	-6.52749e-07	14.9026	14.8685	12.6372	12.6372	14.9026	14.8685	12.6372	14.9026	14.8685	543.234	-0	-500
29.1667	0.0569877	0.0569877	0.0569877	30.6927	1000	-6.52749e-07	14.8968	14.8629	12.6322	12.6322	14.8968	14.8629	12.6322	14.8968	14.8629	543.02	-0	-500
29.25	0.0569877	0.0569877	0.0569877	30.6927	1000	-6.52749e-07	14.891	14.8573	12.6272	12.6272	14.891	14.8573	12.6272	14.891	14.8573	542.806	-0	-500
29.3333	0.0569877	0.0569877	0.0569877	30.6927	1000	-6.52749e-07	14.8852	14.8517	12.6223	12.6223	14.8852	14.8517	12.6223	14.8852	14.8517	542.593	-0	-500
29.4167	0.0569877	0.0569877	0.0569877	30.6927	1000	-6.52749e-07	14.8795	14.8461	12.6173	12.6173	14.8795	14.8461	12.6173	14.8795	14.8461	542.382	-0	-500
29.5	0.0569877	0.0569877	0.0569877	30.6927	1000	-6.52749e-07	14.8738	14.8406	12.6124	12.6124	14.8738	14.8406	12.6124	14.8738	14.8406	542.171	-0	-500
29.5833	0.0569877	0.0569877	0.0569877	30.6927	1000	-6.52749e-07	14.8681	14.835	12.6076	12.6076	14.8681	14.835	12.6076	14.8681	14.835	541.961	-0	-500
29.6667	0.0569877	0.0569877	0.0569877	30.6927	1000	-6.52749e-07	14.8625	14.8295	12.6027	12.6027	14.8625	14.8295	12.6027	14.8625	14.8295	541.753	-0	-500
29.75	0.0569877	0.0569877	0.0569877	30.6927	1000	-6.52749e-07	14.8568	14.8241	12.5979	12.5979	14.8568	14.8241	12.5979	14.8568	14.8241	541.546	-0	-500
29.8333	0.0569877	0.0569877	0.0569877	30.6927	1000	-6.52749e-07	14.8512	14.8187	12.5931	12.5931	14.8512	14.8187	12.5931	14.8512	14.8187	541.339	-0	-500
29.9167	0.0569877	0.0569877	0.0569877	30.6927	1000	-6.52749e-07	14.8457	14.8132	12.5883	12.5883	14.8457	14.8132	12.5883	14.8457	14.8132	541.134	-0	-500
30	0.0569877	0.0569877	0.0569877	30.6927	1000	-6.52749e-07	14.8401	14.8079	12.5836	12.5836	14.8401	14.8079	12.5836	14.8401	14.8079	540.929	-0	-500
30.0833	0.0569877	0.0569877	0.0569877	30.6927	1000	-6.52749e-07	14.8346	14.8025	12.5788	12.5788	14.8346	14.8025	12.5788	14.8346	14.8025	540.726	-0	-500
30.1667	0.0569877	0.0569877	0.0569877	30.6927	1000	-6.52749e-07	14.8291	14.7972	12.5741	12.5741	14.8291	14.7972	12.5741	14.8291	14.7972	540.524	-0	-500
30.25	0.0569877	0.0569877	0.0569877	30.6927	1000	-6.52749e-07	14.8237	14.7919	12.5694	12.5694	14.8237	14.7919	12.5694	14.8237	14.7919	540.322	-0	-500
30.3333	0.0569877	0.0569877	0.0569877	30.6927	1000	-6.52749e-07	14.8182	14.7866	12.5648	12.5648	14.8182	14.7866	12.5648	14.8182	14.7866	540.122	-0	-500
30.4167	0.0569877	0.0569877	0.0569877	30.6927	1000	-6.52749e-07	14.8128	14.7814	12.5601	12.5601	14.8128	14.7814	12.5601	14.8128	14.7814	539.923	-0	-500
30.5	0.0569877	0.0569877	0.0569877	30.6927	1000	-6.52749e-07	14.8075	14.7761	12.5555	12.5555	14.8075	14.7761	12.5555	14.8075	14.7761	539.724	-0	-500
30.5833	0.0569877	0.0569877	0.0569877	30.6927	1000	-6.52749e-07	14.8021	14.771	12.5509	12.5509	14.8021	14.771	12.5509	14.8021	14.771	539.527	-0	-500
30.6667	0.0569877	0.0569877	0.0569877	30.6927	1000	-6.52749e-07	14.7968	14.7658	12.5464	12.5464	14.7968	14.7658	12.5464	14.7968	14.7658	539.331	-0	-500
30.75	0.0569877	0.0569877	0.0569877	30.6927	1000	-6.52749e-07	14.7915	14.7606	12.5418	12.5418	14.7915	14.7606	12.5418	14.7915	14.7606	539.135	-0	-500
30.8333	0.0569877	0.0569877	0.0569877	30.6927	1000	-6.52749e-07	14.7862	14.7555	12.5373	12.5373	14.7862	14.7555	12.5373	14.7862	14.7555	538.941	-0	-500
30.9167	0.0569877	0.0569877	0.0569877	30.6927	1000	-6.52749e-07	14.781	14.7504	12.5328	12.5328	14.781	14.7504	12.5328	14.781	14.7504	538.747	-0	-500
31	0.0569877	0.0569877	0.0569877	30.6927	1000	-6.52749e-07	14.7758	14.7454	12.5283	12.5283	14.7758	14.7454	12.5283	14.7758	14.7454	538.555	-0	-500
31.0833	0.0569877	0.0569877	0.0569877	30.6927	1000	-6.52749e-07	14.7706	14.7403	12.5239	12.5239	14.7706	14.7403	12.5239	14.7706	14.7403	538.363	-0	-500
31.1667	0.0569877	0.0569877	0.0569877	30.6927	1000	-6.52749e-07	14.7654	14.7353	12.5194	12.5194	14.7654	14.7353	12.5194	14.7654	14.7353	538.173	-0	-500
31.25	0.0569877	0.0569877	0.0569877	30.6927	1000	-6.52749e-07	14.7603	14.7303	12.515	12.515	14.7603	14.7303	12.515	14.7603	14.7303	537.983	-0	-500
31.3333	0.0569877	0.0569877	0.0569877	30.6927	1000	-6.52749e-07	14.7551	14.7253	12.5106	12.5106	14.7551	14.7253	12.5106	14.7551	14.7253	537.794	-0	-500
31.4167	0.0569877	0.0569877	0.0569877	30.6927	1000	-6.52749e-07	14.75	14.7204	12.5063	12.5063	14.75	14.7204	12.5063	14.75	14.7204	537.607	-0	-500
31.5	0.0569877	0.0569877	0.0569877	30.6927	1000	-6.52749e-07	14.745	14.7155	12.5019	12.5019	14.745	14.7155	12.5019	14.745	14.7155	537.42	-0	-500
31.5833	0.0569877	0.0569877	0.0569877	30.6927	1000	-6.52749e-07	14.7399	14.7106	12.4976	12.4976	14.7399	14.7106	12.4976	14.7399	14.7106	537.234	-0	-500
31.6667	0.0569877	0.0569877	0.0569877	30.6927	1000	-6.52749e-07	14.7349	14.7057	12.4933	12.4933	14.7349	14.7057	12.4933	14.7349	14.7057	537.049	-0	-500
31.75	0.0569877	0.0569877	0.0569877	30.6927	1000	-6.52749e-07	14.7299	14.7009	12.489	12.489	14.7299	14.7009	12.489	14.7299	14.7009	536.865	-0	-500
31.8333	0.0569877	0.0569877	0.0569877	30.6927	1000	-6.52749e-07	14.725	14.6961	12.4847	12.4847	14.725	14.6961	12.4847	14.725	14.6961	536.682	-0	-500
31.9167	0.0569877	0.0569877	0.0569877	30.6927	1000	-6.52749e-07	14.72	14.6913	12.4805	12.4805	14.72	14.6913	12.4805	14.72	14.6913	536.5	-0	-500
32	0.0569877	0.0569877	0.0569877	30.6927	1000	-6.52749e-07	14.7151	14.6865	12.4763	12.4763	14.7151	14.6865	12.4763	14.7151	14.6865	536.318	-0	-500
32.0833	0.0569877	0.0569877	0.0569877	30.6927	1000	-6.52749e-07	14.7102	14.6817	12.4721	12.4721	14.7102	14.6817	12.4721	14.7102	14.6817	536.138	-0	-500
32.1667	0.0569877	0.0569877	0.0569877	30.6927	1000	-6.52749e-07	14.7054	14.677	12.4679	12.4679	14.7054	14.677	12.4679	14.7054	14.677	535.958	-0	-500
32.25	0.0569877	0.0569877	0.0569877	30.6927	1000	-6.52749e-07	14.7005	14.6723	12.4638	12.4638	14.7005	14.6723	12.4638	14.7005	14.6723	535.78	-0	-500
32.3333	0.0569877	0.0569877	0.0569877	30.6927	1000	-6.52749e-07	14.6957	14.6676	12.4596	12.4596	14.6957	14.6676	12.4596	14.6957	14.6676	535.602	-0	-500
32.4167	0.0569877	0.0569877	0.0569877	30.6927	1000	-6.52749e-07	14.6909	14.663	12.4555	12.4555	14.6909	14.663	12.4555	14.6909	14.663	535.425	-0	-500
32.5	0.0569877	0.0569877	0.0569877	30.6927	1000	-6.52749e-07	14.6861	14.6583	12.4514	12.4514	14.6861	14.6583	12.4514	14.6861	14.6583	535.249	-0	-500
32.5833	0.0569877	0.0569877	0.0569877	30.6927	1000	-6.52749e-07	14.6814	14.6537	12.4473	12.4473	14.6814	14.6537	12.4473	14.6814	14.6537	535.074	-0	-500
32.6667	0.0569877	0.0569877	0.0569877	30.6927	1000	-6.52749e-07	14.6766	14.6491	12.4433	12.4433	14.6766	14.6491	12.4433	14.6766	14.6491	534.9	-0	-500
32.75	0.0569877	0.0569877	0.0569877	30.6927	1000	-6.52749e-07	14.6719	14.6446	12.4393	12.4393	14.6719	14.6446	12.4393	14.6719	14.6446	534.726	-0	-500
32.8333	0.0569877	0.0569877	0.0569877	30.6927	1000	-6.52749e-07	14.6673	14.64	12.4352	12.4352	14.6673	14.64	12.4352	14.6673	14.64	534.554	-0	-500
32.9167	0.0569877	0.0569877	0.0569877	30.6927	1000	-6.52749e-07	14.6626	14.6355	12.4312	12.4312	14.6626	14.6355	12.4312	14.6626	14.6355	534.382	-0	-500
33	0.0569877	0.0569877	0.0569877	30.6927	1000	-6.52749e-07	14.658	14.631	12.4273	12.4273	14.658	14.631	12.4273	14.658	14.631	534.211	-0	-500
33.0833	0.0569877	0.0569877	0.0569877	30.6927	1000	-6.52749e-07	14.6534	14.6265	12.4233	12.4233	14.6534	14.6265	12.4233	14.6534	14.6265	534.041	-0	-500
33.1667	0.0569877	0.0569877	0.0569877	30.6927	1000	-6.52749e-07	14.6488	14.6221	12.4194	12.4194	14.6488	14.6221	12.4194	14.6488	14.6221	533.872	-0	-500
33.25	0.0569877	0.0569877	0.0569877	30.6927	1000	-6.52749e-07	14.6442	14.6177	12.4155	12.4155	14.6442	14.6177	12.4155	14.6442	14.6177	533.704	-0	-500
33.3333	0.0569877	0.0569877	0.0569877	30.6927	1000	-6.52749e-07	14.6397	14.6133	12.4116	12.4116	14.6397	14.6133	12.4116	14.6397	14.6133	533.536	-0	-500
33.4167	0.0569877	0.0569877	0.0569877	30.6927	1000	-6.52749e-07	14.6352	14.6089	12.4077	12.4077	14.6352	14.6089	12.4077	14.6352	14.6089	533.37	-0	-500
33.5	0.0569877	0.0569877	0.0569877	30.6927	1000	-6.52749e-07	14.6307	14.6045	12.4038	12.4038	14.6307	14.6045	12.4038	14.6307	14.6045	533.204	-0	-500
33.5833	0.0569877	0.0569877	0.0569877	30.6927	1000	-6.52749e-07	14.6262	14.6002	12.4	12.4	14.6262	14.6002	12.4	14.6262	14.6002	533.039	-0	-500
33.6667	0.0569877	0.0569877	0.0569877	30.6927	1000	-6.52749e-07	14.6218	14.5958	12.3962	12.3962	14.6218	14.5958	12.3962	14.6218	14.5958	532.875	-0	-500
33.75	0.0569877	0.0569877	0.0569877	30.6927	1000	-6.52749e-07	14.6173	14.5915	12.3924	12.3924	14.6173	14.5915	12.3924	14.6173	14.5915	532.712	-0	-500
33.8333	0.0569877	0.0569877	0.0569877	30.6927	1000	-6.52749e-07	14.6129	14.5873	12.3886	12.3886	14.6129	14.5873	12.3886	14.6129	14.5873	532.549	-0	-500
33.9167	0.0569877	0.0569877	0.0569877	30.6927	1000	-6.52749e-07	14.6085	14.583	12.3848	12.3848	14.6085	14.583	12.3848	14.6085	14.583	532.387	-0	-500
34	0.0569877	0.0569877	0.0569877	30.6927	1000	-6.52749e-07	14.6042	14.5788	12.3811	12.3811	14.6042	14.5788	12.3811	14.6042	14.5788	532.226	-0	-500
34.0833	0.0569877	0.0569877	0.0569877	30.6927	1000	-6.52749e-07	14.5998	14.5746	12.3774	12.3774	14.5998	14.5746	12.3774	14.5998	14.5746	532.066	-0	-500
34.1667	0.0569877	0.0569877	0.0569877	30.6927	1000	-6.52749e-07	14.5955	14.5704	12.3737	12.3737	14.5955	14.5704	12.3737	14.5955	14.5704	531.907	-0	-500
34.25	0.0569877	0.0569877	0.0569877	30.6927	1000	-6.52749e-07	14.5912	14.5662	12.37	12.37	14.5912	14.5662	12.37	14.5912	14.5662	531.749	-0	-500
34.3333	0.0569877	0.0569877	0.0569877	30.6927	1000	-6.52749e-07	14.5869	14.562	12.3663	12.3663	14.5869	14.562	12.3663	14.5869	14.562	531.591	-0	-500
34.4167	0.0569877	0.0569877	0.0569877	30.6927	1000	-6.52749e-07	14.5827	14.5579	12.3627	12.3627	14.5827	14.5579	12.3627	14.5827	14.5579	531.434	-0	-500
34.5	0.0569877	0.0569877	0.0569877	30.6927	1000	-6.52749e-07	14.5784	14.5538	12.359	12.359	14.5784	14.5538	12.359	14.5784	14.5538	531.278	-0	-500
34.5833	0.0569877	0.0569877	0.0569877	30.6927	1000	-6.52749e-07	14.5742	14.5497	12.3554	12.3554	14.5742	14.5497	12.3554	14.5742	14.5497	531.122	-0	-500
34.6667	0.0569877	0.0569877	0.0569877	30.6927	1000	-6.52749e-07	14.57	14.5456	12.3518	12.3518	14.57	14.5456	12.3518	14.57	14.5456	530.968	-0	-500
34.75	0.0569877	0.0569877	0.0569877	30.6927	1000	-6.52749e-07	14.5659	14.5416	12.3482	12.3482	14.5659	14.5416	12.3482	14.5659	14.5416	530.814	-0	-500
34.8333	0.0569877	0.0569877	0.0569877	30.6927	1000	-6.52749e-07	14.5617	14.5376	12.3447	12.3447	14.5617	14.5376	12.3447	14.5617	14.5376	530.661	-0	-500
34.9167	0.0569877	0.0569877	0.0569877	30.6927	1000	-6.52749e-07	14.5576	14.5335	12.3411	12.3411	14.5576	14.5335	12.3411	14.5576	14.5335	530.508	-0	-500
35	0.0569877	0.0569877	0.0569877	30.6927	1000	-6.52749e-07	14.5535	14.5296	12.3376	12.3376	14.5535	14.5296	12.3376	14.5535	14.5296	530.357	-0	-500
35.0833	0.0569877	0.0569877	0.0569877	30.6927	1000	-6.52749e-07	14.5494	14.5256	12.3341	12.3341	14.5494	14.5256	12.3341	14.5494	14.5256	530.206	-0	-500
35.1667	0.0569877	0.0569877	0.0569877	30.6927	1000	-6.52749e-07	14.5453	14.5216	12.3306	12.3306	14.5453	14.5216	12.3306	14.5453	14.5216	530.056	-0	-500
35.25	0.0569877	0.0569877	0.0569877	30.6927	1000	-6.52749e-07	14.5413	14.5177	12.3271	12.3271	14.5413	14.5177	12.3271	14.5413	14.5177	529.907	-0	-500
35.3333	0.0569877	0.0569877	0.0569877	30.6927	1000	-6.52749e-07	14.5372	14.5138	12.3237	12.3237	14.5372	14.5138	12.3237	14.5372	14.5138	529.758	-0	-500
35.4167	0.0569877	0.0569877	0.0569877	30.6927	1000	-6.52749e-07	14.5332	14.5099	12.3202	12.3202	14.5332	14.5099	12.3202	14.5332	14.5099	529.61	-0	-500
35.5	0.0569877	0.0569877	0.0569877	30.6927	1000	-6.52749e-07	14.5292	14.506	12.3168	12.3168	14.5292	14.506	12.3168	14.5292	14.506	529.463	-0	-500
35.5833	0.0569877	0.0569877	0.0569877	30.6927	1000	-6.52749e-07	14.5253	14.5022	12.3134	12.3134	14.5253	14.5022	12.3134	14.5253	14.5022	529.317	-0	-500
35.6667	0.0569877	0.0569877	0.0569877	30.6927	1000	-6.52749e-07	14.5213	14.4983	12.31	12.31	14.5213	14.4983	12.31	14.5213	14.4983	529.171	-0	-500
35.75	0.0569877	0.0569877	0.0569877	30.6927	1000	-6.52749e-07	14.5174	14.4945	12.3067	12.3067	14.5174	14.4945	12.3067	14.5174	14.4945	529.026	-0	-500
35.8333	0.0569877	0.0569877	0.0569877	30.6927	1000	-6.52749e-07	14.5135	14.4907	12.3033	12.3033	14.5135	14.4907	12.3033	14.5135	14.4907	528.882	-0	-500
35.9167	0.0569877	0.0569877	0.0569877	30.6927	1000	-6.52749e-07	14.5096	14.4869	12.3	12.3	14.5096	14.4869	12.3	14.5096	14.4869	528.738	-0	-500
36	0.0569877	0.0569877	0.0569877	30.6927	1000	-6.52749e-07	14.5057	14.4832	12.2966	12.2966	14.5057	14.4832	12.2966	14.5057	14.4832	528.596	-0	-500
36.0833	0.0569877	0.0569877	0.0569877	30.6927	1000	-6.52749e-07	14.5019	14.4795	12.2933	12.2933	14.5019	14.4795	12.2933	14.5019	14.4795	528.454	-0	-500
36.1667	0.0569877	0.0569877	0.0569877	30.6927	1000	-6.52749e-07	14.498	14.4757	12.29	12.29	14.498	14.4757	12.29	14.498	14.4757	528.312	-0	-500
36.25	0.0569877	0.0569877	0.0569877	30.6927	1000	-6.52749e-07	14.4942	14.472	12.2868	12.2868	14.4942	14.472	12.2868	14.4942	14.472	528.172	-0	-500
36.3333	0.0569877	0.0569877	0.0569877	30.6927	1000	-6.52749e-07	14.4904	14.4683	12.2835	12.2835	14.4904	14.4683	12.2835	14.4904	14.4683	528.032	-0	-500
36.4167	0.0569877	0.0569877	0.0569877	30.6927	1000	-6.52749e-07	14.4867	14.4647	12.2803	12.2803	14.4867	14.4647	12.2803	14.4867	14.4647	527.892	-0	-500
36.5	0.0569877	0.0569877	0.0569877	30.6927	1000	-6.52749e-07	14.4829	14.461	12.2771	12.2771	14.4829	14.461	12.2771	14.4829	14.461	527.754	-0	-500
36.5833	0.0569877	0.0569877	0.0569877	30.6927	1000	-6.52749e-07	14.4792	14.4574	12.2738	12.2738	14.4792	14.4574	12.2738	14.4792	14.4574	527.616	-0	-500
36.6667	0.0569877	0.0569877	0.0569877	30.6927	1000	-6.52749e-07	14.4754	14.4538	12.2707	12.2707	14.4754	14.4538	12.2707	14.4754	14.4538	527.479	-0	-500
36.75	0.0569877	0.0569877	0.0569877	30.6927	1000	-6.52749e-07	14.4717	14.4502	12.2675	12.2675	14.4717	14.4502	12.2675	14.4717	14.4502	527.342	-0	-500
36.8333	0.0569877	0.0569877	0.0569877	30.6927	1000	-6.52749e-07	14.4681	14.4466	12.2643	12.2643	14.4681	14.4466	12.2643	14.4681	14.4466	527.206	-0	-500
36.9167	0.0569877	0.0569877	0.0569877	30.6927	1000	-6.52749e-07	14.4644	14.4431	12.2612	12.2612	14.4644	14.4431	12.2612	14.4644	14.4431	527.071	-0	-500
37	0.0569877	0.0569877	0.0569877	30.6927	1000	-6.52749e-07	14.4608	14.4395	12.258	12.258	14.4608	14.4395	12.258	14.4608	14.4395	526.937	-0	-500
37.0833	0.0569877	0.0569877	0.0569877	30.6927	1000	-6.52749e-07	14.4571	14.436	12.2549	12.2549	14.4571	14.436	12.2549	14.4571	14.436	526.803	-0	-500
37.1667	0.0569877	0.0569877	0.0569877	30.6927	1000	-6.52749e-07	14.4535	14.4325	12.2518	12.2518	14.4535	14.4325	12.2518	14.4535	14.4325	526.67	-0	-500
37.25	0.0569877	0.0569877	0.0569877	30.6927	1000	-6.52749e-07	14.4499	14.429	12.2488	12.2488	14.4499	14.429	12.2488	14.4499	14.429	526.537	-0	-500
37.3333	0.0569877	0.0569877	0.0569877	30.6927	1000	-6.52749e-07	14.4463	14.4255	12.2457	12.2457	14.4463	14.4255	12.2457	14.4463	14.4255	526.405	-0	-500
37.4167	0.0569877	0.0569877	0.0569877	30.6927	1000	-6.52749e-07	14.4428	14.4221	12.2426	12.2426	14.4428	14.4221	12.2426	14.4428	14.4221	526.274	-0	-500
37.5	0.0569877	0.0569877	0.0569877	30.6927	1000	-6.52749e-07	14.4393	14.4186	12.2396	12.2396	14.4393	14.4186	12.2396	14.4393	14.4186	526.144	-0	-500
37.5833	0.0569877	0.0569877	0.0569877	30.6927	1000	-6.52749e-07	14.4357	14.4152	12.2366	12.2366	14.4357	14.4152	12.2366	14.4357	14.4152	526.014	-0	-500
37.6667	0.0569877	0.0569877	0.0569877	30.6927	1000	-6.52749e-07	14.4322	14.4118	12.2336	12.2336	14.4322	14.4118	12.2336	14.4322	14.4118	525.885	-0	-500
37.75	0.0569877	0.0569877	0.0569877	30.6927	1000	-6.52749e-07	14.4287	14.4084	12.2306	12.2306	14.4287	14.4084	12.2306	14.4287	14.4084	525.756	-0	-500
37.8333	0.0569877	0.0569877	0.0569877	30.6927	1000	-6.52749e-07	14.4253	14.4051	12.2276	12.2276	14.4253	14.4051	12.2276	14.4253	14.4051	525.628	-0	-500
37.9167	0.0569877	0.0569877	0.0569877	30.6927	1000	-6.52749e-07	14.4218	14.4017	12.2246	12.2246	14.4218	14.4017	12.2246	14.4218	14.4017	525.501	-0	-500
38	0.0569877	0.0569877	0.0569877	30.6927	1000	-6.52749e-07	14.4184	14.3984	12.2217	12.2217	14.4184	14.3984	12.2217	14.4184	14.3984	525.374	-0	-500
38.0833	0.0569877	0.0569877	0.0569877	30.6927	1000	-6.52749e-07	14.415	14.3951	12.2188	12.2188	14.415	14.3951	12.2188	14.415	14.3951	525.248	-0	-500
38.1667	0.0569877	0.0569877	0.0569877	30.6927	1000	-6.52749e-07	14.4116	14.3918	12.2158	12.2158	14.4116	14.3918	12.2158	14.4116	14.3918	525.123	-0	-500
38.25	0.0569877	0.0569877	0.0569877	30.6927	1000	-6.52749e-07	14.4082	14.3885	12.2129	12.2129	14.4082	14.3885	12.2129	14.4082	14.3885	524.998	-0	-500
38.3333	0.0569877	0.0569877	0.0569877	30.6927	1000	-6.52749e-07	14.4048	14.3852	12.2101	12.2101	14.4048	14.3852	12.2101	14.4048	14.3852	524.873	-0	-500
38.4167	0.0569877	0.0569877	0.0569877	30.6927	1000	-6.52749e-07	14.4015	14.382	12.2072	12.2072	14.4015	14.382	12.2072	14.4015	14.382	524.75	-0	-500
38.5	0.0569877	0.0569877	0.0569877	30.6927	1000	-6.52749e-07	14.3981	14.3787	12.2043	12.2043	14.3981	14.3787	12.2043	14.3981	14.3787	524.627	-0	-500
38.5833	0.0569877	0.0569877	0.0569877	30.6927	1000	-6.52749e-07	14.3948	14.3755	12.2015	12.2015	14.3948	14.3755	12.2015	14.3948	14.3755	524.505	-0	-500
38.6667	0.0569877	0.0569877	0.0569877	30.6927	1000	-6.52749e-07	14.3915	14.3723	12.1986	12.1986	14.3915	14.3723	12.1986	14.3915	14.3723	524.383	-0	-500
38.75	0.0569877	0.0569877	0.0569877	30.6927	1000	-6.52749e-07	14.3882	14.3691	12.1958	12.1958	14.3882	14.3691	12.1958	14.3882	14.3691	524.262	-0	-500
38.8333	0.0569877	0.0569877	0.0569877	30.6927	1000	-6.52749e-07	14.385	14.3659	12.193	12.193	14.385	14.3659	12.193	14.385	14.3659	524.141	-0	-500
38.9167	0.0569877	0.0569877	0.0569877	30.6927	1000	-6.52749e-07	14.3817	14.3628	12.1902	12.1902	14.3817	14.3628	12.1902	14.3817	14.3628	524.021	-0	-500
39	0.0569877	0.0569877	0.0569877	30.6927	1000	-6.52749e-07	14.3785	14.3596	12.1875	12.1875	14.3785	14.3596	12.1875	14.3785	14.3596	523.902	-0	-500
39.0833	0.0569877	0.0569877	0.0569877	30.6927	1000	-6.52749e-07	14.3753	14.3565	12.1847	12.1847	14.3753	14.3565	12.1847	14.3753	14.3565	523.783	-0	-500
39.1667	0.0569877	0.0569877	0.0569877	30.6927	1000	-6.52749e-07	14.372	14.3534	12.1819	12.1819	14.372	14.3534	12.1819	14.372	14.3534	523.665	-0	-500
39.25	0.0569877	0.0569877	0.0569877	30.6927	1000	-6.52749e-07	14.3689	14.3503	12.1792	12.1792	14.3689	14.3503	12.1792	14.3689	14.3503	523.547	-0	-500
39.3333	0.0569877	0.0569877	0.0569877	30.6927	1000	-6.52749e-07	14.3657	14.3472	12.1765	12.1765	14.3657	14.3472	12.1765	14.3657	14.3472	523.43	-0	-500
39.4167	0.0569877	0.0569877	0.0569877	30.6927	1000	-6.52749e-07	14.3625	14.3442	12.1738	12.1738	14.3625	14.3442	12.1738	14.3625	14.3442	523.314	-0	-500
39.5	0.0569877	0.0569877	0.0569877	30.6927	1000	-6.52749e-07	14.3594	14.3411	12.1711	12.1711	14.3594	14.3411	12.1711	14.3594	14.3411	523.198	-0	-500
39.5833	0.0569877	0.0569877	0.0569877	30.6927	1000	-6.52749e-07	14.3563	14.3381	12.1684	12.1684	14.3563	14.3381	12.1684	14.3563	14.3381	523.083	-0	-500
39.6667	0.0569877	0.0569877	0.0569877	30.6927	1000	-6.52749e-07	14.3532	14.3351	12.1657	12.1657	14.3532	14.3351	12.1657	14.3532	14.3351	522.968	-0	-500
39.75	0.0569877	0.0569877	0.0569877	30.6927	1000	-6.52749e-07	14.3501	14.332	12.1631	12.1631	14.3501	14.332	12.1631	14.3501	14.332	522.854	-0	-500
39.8333	0.0569877	0.0569877	0.0569877	30.6927	1000	-6.52749e-07	14.347	14.3291	12.1604	12.1604	14.347	14.3291	12.1604	14.347	14.3291	522.741	-0	-500
39.9167	0.0569877	0.0569877	0.0569877	30.6927	1000	-6.52749e-07	14.3439	14.3261	12.1578	12.1578	14.3439	14.3261	12.1578	14.3439	14.3261	522.628	-0	-500
40	0.0569877	0.0569877	0.0569877	30.6927	1000	-6.52749e-07	14.3409	14.3231	12.1552	12.1552	14.3409	14.3231	12.1552	14.3409	14.3231	522.515	-0	-500
40.0833	0.0569877	0.0569877	0.0569877	30.6927	1000	-6.52749e-07	14.3378	14.3202	12.1526	12.1526	14.3378	14.3202	12.1526	14.3378	14.3202	522.403	-0	-500
40.1667	0.0569877	0.0569877	0.0569877	30.6927	1000	-6.52749e-07	14.3348	14.3173	12.15	12.15	14.3348	14.3173	12.15	14.3348	14.3173	522.292	-0	-500
40.25	0.0569877	0.0569877	0.0569877	30.6927	1000	-6.52749e-07	14.3318	14.3143	12.1474	12.1474	14.3318	14.3143	12.1474	14.3318	14.3143	522.181	-0	-500
40.3333	0.0569877	0.0569877	0.0569877	30.6927	1000	-6.52749e-07	14.3288	14.3114	12.1449	12.1449	14.3288	14.3114	12.1449	14.3288	14.3114	522.071	-0	-500
40.4167	0.0569877	0.0569877	0.0569877	30.6927	1000	-6.52749e-07	14.3259	14.3085	12.1423	12.1423	14.3259	14.3085	12.1423	14.3259	14.3085	521.961	-0	-500
40.5	0.0569877	0.0569877	0.0569877	30.6927	1000	-6.52749e-07	14.3229	14.3057	12.1398	12.1398	14.3229	14.3057	12.1398	14.3229	14.3057	521.852	-0	-500
40.5833	0.0569877	0.0569877	0.0569877	30.6927	1000	-6.52749e-07	14.32	14.3028	12.1372	12.1372	14.32	14.3028	12.1372	14.32	14.3028	521.744	-0	-500
40.6667	0.0569877	0.0569877	0.0569877	30.6927	1000	-6.52749e-07	14.317	14.3	12.1347	12.1347	14.317	14.3	12.1347	14.317	14.3	521.636	-0	-500
40.75	0.0569877	0.0569877	0.0569877	30.6927	1000	-6.52749e-07	14.3141	14.2971	12.1322	12.1322	14.3141	14.2971	12.1322	14.3141	14.2971	521.528	-0	-500
40.8333	0.0569877	0.0569877	0.0569877	30.6927	1000	-6.52749e-07	14.3112	14.2943	12.1297	12.1297	14.3112	14.2943	12.1297	14.3112	14.2943	521.421	-0	-500
40.9167	0.0569877	0.0569877	0.0569877	30.6927	1000	-6.52749e-07	14.3083	14.2915	12.1273	12.1273	14.3083	14.2915	12.1273	14.3083	14.2915	521.315	-0	-500
41	0.0569877	0.0569877	0.0569877	30.6927	1000	-6.52749e-07	14.3055	14.2887	12.1248	12.1248	14.3055	14.2887	12.1248	14.3055	14.2887	521.209	-0	-500
41.0833	0.0569877	0.0569877	0.0569877	30.6927	1000	-6.52749e-07	14.3026	14.286	12.1224	12.1224	14.3026	14.286	12.1224	14.3026	14.286	521.104	-0	-500
41.1667	0.0569877	0.0569877	0.0569877	30.6927	1000	-6.52749e-07	14.2998	14.2832	12.1199	12.1199	14.2998	14.2832	12.1199	14.2998	14.2832	520.999	-0	-500
41.25	0.0569877	0.0569877	0.0569877	30.6927	1000	-6.52749e-07	14.2969	14.2805	12.1175	12.1175	14.2969	14.2805	12.1175	14.2969	14.2805	520.895	-0	-500
41.3333	0.0569877	0.0569877	0.0569877	30.6927	1000	-6.52749e-07	14.2941	14.2777	12.1151	12.1151	14.2941	14.2777	12.1151	14.2941	14.2777	520.791	-0	-500
41.4167	0.0569877	0.0569877	0.0569877	30.6927	1000	-6.52749e-07	14.2913	14.275	12.1127	12.1127	14.2913	14.275	12.1127	14.2913	14.275	520.687	-0	-500
41.5	0.0569877	0.0569877	0.0569877	30.6927	1000	-6.52749e-07	14.2885	14.2723	12.1103	12.1103	14.2885	14.2723	12.1103	14.2885	14.2723	520.585	-0	-500
41.5833	0.0569877	0.0569877	0.0569877	30.6927	1000	-6.52749e-07	14.2858	14.2696	12.1079	12.1079	14.2858	14.2696	12.1079	14.2858	14.2696	520.482	-0	-500
41.6667	0.0569877	0.0569877	0.0569877	30.6927	1000	-6.52749e-07	14.283	14.2669	12.1055	12.1055	14.283	14.2669	12.1055	14.283	14.2669	520.381	-0	-500
41.75	0.0569877	0.0569877	0.0569877	30.6927	1000	-6.52749e-07	14.2803	14.2643	12.1032	12.1032	14.2803	14.2643	12.1032	14.2803	14.2643	520.279	-0	-500
41.8333	0.0569877	0.0569877	0.0569877	30.6927	1000	-6.52749e-07	14.2775	14.2616	12.1008	12.1008	14.2775	14.2616	12.1008	14.2775	14.2616	520.179	-0	-500
41.9167	0.0569877	0.0569877	0.0569877	30.6927	1000	-6.52749e-07	14.2748	14.259	12.0985	12.0985	14.2748	14.259	12.0985	14.2748	14.259	520.078	-0	-500
42	0.0569877	0.0569877	0.0569877	30.6927	1000	-6.52749e-07	14.2721	14.2564	12.0962	12.0962	14.2721	14.2564	12.0962	14.2721	14.2564	519.979	-0	-500
42.0833	0.0569877	0.0569877	0.0569877	30.6927	1000	-6.52749e-07	14.2694	14.2537	12.0939	12.0939	14.2694	14.2537	12.0939	14.2694	14.2537	519.879	-0	-500
42.1667	0.0569877	0.0569877	0.0569877	30.6927	1000	-6.52749e-07	14.2667	14.2511	12.0916	12.0916	14.2667	14.2511	12.0916	14.2667	14.2511	519.781	-0	-500
42.25	0.0569877	0.0569877	0.0569877	30.6927	1000	-6.52749e-07	14.2641	14.2486	12.0893	12.0893	14.2641	14.2486	12.0893	14.2641	14.2486	519.682	-0	-500
42.3333	0.0569877	0.0569877	0.0569877	30.6927	1000	-6.52749e-07	14.2614	14.246	12.087	12.087	14.2614	14.246	12.087	14.2614	14.246	519.585	-0	-500
42.4167	0.0569877	0.0569877	0.0569877	30.6927	1000	-6.52749e-07	14.2588	14.2434	12.0848	12.0848	14.2588	14.2434	12.0848	14.2588	14.2434	519.487	-0	-500
42.5	0.0569877	0.0569877	0.0569877	30.6927	1000	-6.52749e-07	14.2562	14.2409	12.0825	12.0825	14.2562	14.2409	12.0825	14.2562	14.2409	519.39	-0	-500
42.5833	0.0569877	0.0569877	0.0569877	30.6927	1000	-6.52749e-07	14.2535	14.2383	12.0803	12.0803	14.2535	14.2383	12.0803	14.2535	14.2383	519.294	-0	-500
42.6667	0.0569877	0.0569877	0.0569877	30.6927	1000	-6.52749e-07	14.2509	14.2358	12.078	12.078	14.2509	14.2358	12.078	14.2509	14.2358	519.198	-0	-500
42.75	0.0569877	0.0569877	0.0569877	30.6927	1000	-6.52749e-07	14.2484	14.2333	12.0758	12.0758	14.2484	14.2333	12.0758	14.2484	14.2333	519.103	-0	-500
42.8333	0.0569877	0.0569877	0.0569877	30.6927	1000	-6.52749e-07	14.2458	14.2308	12.0736	12.0736	14.2458	14.2308	12.0736	14.2458	14.2308	519.008	-0	-500
42.9167	0.0569877	0.0569877	0.0569877	30.6927	1000	-6.52749e-07	14.2432	14.2283	12.0714	12.0714	14.2432	14.2283	12.0714	14.2432	14.2283	518.914	-0	-500
43	0.0569877	0.0569877	0.0569877	30.6927	1000	-6.52749e-07	14.2407	14.2258	12.0692	12.0692	14.2407	14.2258	12.0692	14.2407	14.2258	518.82	-0	-500
43.0833	0.0569877	0.0569877	0.0569877	30.6927	1000	-6.52749e-07	14.2381	14.2234	12.067	12.067	14.2381	14.2234	12.067	14.2381	14.2234	518.726	-0	-500
43.1667	0.0569877	0.0569877	0.0569877	30.6927	1000	-6.52749e-07	14.2356	14.2209	12.0649	12.0649	14.2356	14.2209	12.0649	14.2356	14.2209	518.633	-0	-500
43.25	0.0569877	0.0569877	0.0569877	30.6927	1000	-6.52749e-07	14.2331	14.2185	12.0627	12.0627	14.2331	14.2185	12.0627	14.2331	14.2185	518.54	-0	-500
43.3333	0.0569877	0.0569877	0.0569877	30.6927	1000	-6.52749e-07	14.2306	14.2161	12.0606	12.0606	14.2306	14.2161	12.0606	14.2306	14.2161	518.448	-0	-500
43.4167	0.0569877	0.0569877	0.0569877	30.6927	1000	-6.52749e-07	14.2281	14.2137	12.0585	12.0585	14.2281	14.2137	12.0585	14.2281	14.2137	518.357	-0	-500
43.5	0.0569877	0.0569877	0.0569877	30.6927	1000	-6.52749e-07	14.2257	14.2113	12.0563	12.0563	14.2257	14.2113	12.0563	14.2257	14.2113	518.265	-0	-500
43.5833	0.0569877	0.0569877	0.0569877	30.6927	1000	-6.52749e-07	14.2232	14.2089	12.0542	12.0542	14.2232	14.2089	12.0542	14.2232	14.2089	518.175	-0	-500
43.6667	0.0569877	0.0569877	0.0569877	30.6927	1000	-6.52749e-07	14.2207	14.2065	12.0521	12.0521	14.2207	14.2065	12.0521	14.2207	14.2065	518.084	-0	-500
43.75	0.0569877	0.0569877	0.0569877	30.6927	1000	-6.52749e-07	14.2183	14.2041	12.05	12.05	14.2183	14.2041	12.05	14.2183	14.2041	517.995	-0	-500
43.8333	0.0569877	0.0569877	0.0569877	30.6927	1000	-6.52749e-07	14.2159	14.2018	12.048	12.048	14.2159	14.2018	12.048	14.2159	14.2018	517.905	-0	-500
43.9167	0.0569877	0.0569877	0.0569877	30.6927	1000	-6.52749e-07	14.2135	14.1994	12.0459	12.0459	14.2135	14.1994	12.0459	14.2135	14.1994	517.816	-0	-500
44	0.0569877	0.0569877	0.0569877	30.6927	1000	-6.52749e-07	14.2111	14.1971	12.0438	12.0438	14.2111	14.1971	12.0438	14.2111	14.1971	517.728	-0	-500
44.0833	0.0569877	0.0569877	0.0569877	30.6927	1000	-6.52749e-07	14.2087	14.1948	12.0418	12.0418	14.2087	14.1948	12.0418	14.2087	14.1948	517.64	-0	-500
44.1667	0.0569877	0.0569877	0.0569877	30.6927	1000	-6.52749e-07	14.2063	14.1925	12.0397	12.0397	14.2063	14.1925	12.0397	14.2063	14.1925	517.552	-0	-500
44.25	0.0569877	0.0569877	0.0569877	30.6927	1000	-6.52749e-07	14.2039	14.1902	12.0377	12.0377	14.2039	14.1902	12.0377	14.2039	14.1902	517.465	-0	-500
44.3333	0.0569877	0.0569877	0.0569877	30.6927	1000	-6.52749e-07	14.2016	14.1879	12.0357	12.0357	14.2016	14.1879	12.0357	14.2016	14.1879	517.378	-0	-500
44.4167	0.0569877	0.0569877	0.0569877	30.6927	1000	-6.52749e-07	14.1993	14.1856	12.0337	12.0337	14.1993	14.1856	12.0337	14.1993	14.1856	517.292	-0	-500
44.5	0.0569877	0.0569877	0.0569877	30.6927	1000	-6.52749e-07	14.1969	14.1834	12.0317	12.0317	14.1969	14.1834	12.0317	14.1969	14.1834	517.206	-0	-500
44.5833	0.0569877	0.0569877	0.0569877	30.6927	1000	-6.52749e-07	14.1946	14.1811	12.0297	12.0297	14.1946	14.1811	12.0297	14.1946	14.1811	517.12	-0	-500
44.6667	0.0569877	0.0569877	0.0569877	30.6927	1000	-6.52749e-07	14.1923	14.1789	12.0277	12.0277	14.1923	14.1789	12.0277	14.1923	14.1789	517.035	-0	-500
44.75	0.0569877	0.0569877	0.0569877	30.6927	1000	-6.52749e-07	14.19	14.1766	12.0257	12.0257	14.19	14.1766	12.0257	14.19	14.1766	516.951	-0	-500
44.8333	0.0569877	0.0569877	0.0569877	30.6927	1000	-6.52749e-07	14.1877	14.1744	12.0238	12.0238	14.1877	14.1744	12.0238	14.1877	14.1744	516.866	-0	-500
44.9167	0.0569877	0.0569877	0.0569877	30.6927	1000	-6.52749e-07	14.1854	14.1722	12.0218	12.0218	14.1854	14.1722	12.0218	14.1854	14.1722	516.783	-0	-500
45	0.0569877	0.0569877	0.0569877	30.6927	1000	-6.52749e-07	14.1832	14.17	12.0199	12.0199	14.1832	14.17	12.0199	14.1832	14.17	516.699	-0	-500
45.0833	0.0569877	0.0569877	0.0569877	30.6927	1000	-6.52749e-07	14.1809	14.1678	12.018	12.018	14.1809	14.1678	12.018	14.1809	14.1678	516.616	-0	-500
45.1667	0.0569877	0.0569877	0.0569877	30.6927	1000	-6.52749e-07	14.1787	14.1657	12.016	12.016	14.1787	14.1657	12.016	14.1787	14.1657	516.534	-0	-500
45.25	0.0569877	0.0569877	0.0569877	30.6927	1000	-6.52749e-07	14.1765	14.1635	12.0141	12.0141	14.1765	14.1635	12.0141	14.1765	14.1635	516.452	-0	-500
45.3333	0.0569877	0.0569877	0.0569877	30.6927	1000	-6.52749e-07	14.1743	14.1614	12.0122	12.0122	14.1743	14.1614	12.0122	14.1743	14.1614	516.37	-0	-500
45.4167	0.0569877	0.0569877	0.0569877	30.6927	1000	-6.52749e-07	14.1721	14.1592	12.0103	12.0103	14.1721	14.1592	12.0103	14.1721	14.1592	516.289	-0	-500
45.5	0.0569877	0.0569877	0.0569877	30.6927	1000	-6.52749e-07	14.1699	14.1571	12.0085	12.0085	14.1699	14.1571	12.0085	14.1699	14.1571	516.208	-0	-500
45.5833	0.0569877	0.0569877	0.0569877	30.6927	1000	-6.52749e-07	14.1677	14.155	12.0066	12.0066	14.1677	14.155	12.0066	14.1677	14.155	516.127	-0	-500
45.6667	0.0569877	0.0569877	0.0569877	30.6927	1000	-6.52749e-07	14.1655	14.1529	12.0047	12.0047	14.1655	14.1529	12.0047	14.1655	14.1529	516.047	-0	-500
45.75	0.0569877	0.0569877	0.0569877	30.6927	1000	-6.52749e-07	14.1633	14.1508	12.0029	12.0029	14.1633	14.1508	12.0029	14.1633	14.1508	515.967	-0	-500
45.8333	0.0569877	0.0569877	0.0569877	30.6927	1000	-6.52749e-07	14.1612	14.1487	12.001	12.001	14.1612	14.1487	12.001	14.1612	14.1487	515.888	-0	-500
45.9167	0.0569877	0.0569877	0.0569877	30.6927	1000	-6.52749e-07	14.1591	14.1466	11.9992	11.9992	14.1591	14.1466	11.9992	14.1591	14.1466	515.809	-0	-500
46	0.0569877	0.0569877	0.0569877	30.6927	1000	-6.52749e-07	14.1569	14.1445	11.9974	11.9974	14.1569	14.1445	11.9974	14.1569	14.1445	515.73	-0	-500
46.0833	0.0569877	0.0569877	0.0569877	30.6927	1000	-6.52749e-07	14.1548	14.1425	11.9955	11.9955	14.1548	14.1425	11.9955	14.1548	14.1425	515.652	-0	-500
46.1667	0.0569877	0.0569877	0.0569877	30.6927	1000	-6.52749e-07	14.1527	14.1404	11.9937	11.9937	14.1527	14.1404	11.9937	14.1527	14.1404	515.575	-0	-500
46.25	0.0569877	0.0569877	0.0569877	30.6927	1000	-6.52749e-07	14.1506	14.1384	11.9919	11.9919	14.1506	14.1384	11.9919	14.1506	14.1384	515.497	-0	-500
46.3333	0.0569877	0.0569877	0.0569877	30.6927	1000	-6.52749e-07	14.1485	14.1364	11.9901	11.9901	14.1485	14.1364	11.9901	14.1485	14.1364	515.42	-0	-500
46.4167	0.0569877	0.0569877	0.0569877	30.6927	1000	-6.52749e-07	14.1464	14.1343	11.9884	11.9884	14.1464	14.1343	11.9884	14.1464	14.1343	515.344	-0	-500
46.5	0.0569877	0.0569877	0.0569877	30.6927	1000	-6.52749e-07	14.1444	14.1323	11.9866	11.9866	14.1444	14.1323	11.9866	14.1444	14.1323	515.267	-0	-500
46.5833	0.0569877	0.0569877	0.0569877	30.6927	1000	-6.52749e-07	14.1423	14.1303	11.9848	11.9848	14.1423	14.1303	11.9848	14.1423	14.1303	515.192	-0	-500
46.6667	0.0569877	0.0569877	0.0569877	30.6927	1000	-6.52749e-07	14.1403	14.1283	11.9831	11.9831	14.1403	14.1283	11.9831	14.1403	14.1283	515.116	-0	-500
46.75	0.0569877	0.0569877	0.0569877	30.6927	1000	-6.52749e-07	14.1382	14.1264	11.9813	11.9813	14.1382	14.1264	11.9813	14.1382	14.1264	515.041	-0	-500
46.8333	0.0569877	0.0569877	0.0569877	30.6927	1000	-6.52749e-07	14.1362	14.1244	11.9796	11.9796	14.1362	14.1244	11.9796	14.1362	14.1244	514.966	-0	-500
46.9167	0.0569877	0.0569877	0.0569877	30.6927	1000	-6.52749e-07	14.1342	14.1224	11.9779	11.9779	14.1342	14.1224	11.9779	14.1342	14.1224	514.892	-0	-500
47	0.0569877	0.0569877	0.0569877	30.6927	1000	-6.52749e-07	14.1322	14.1205	11.9761	11.9761	14.1322	14.1205	11.9761	14.1322	14.1205	514.818	-0	-500
47.0833	0.0569877	0.0569877	0.0569877	30.6927	1000	-6.52749e-07	14.1302	14.1186	11.9744	11.9744	14.1302	14.1186	11.9744	14.1302	14.1186	514.744	-0	-500
47.1667	0.0569877	0.0569877	0.0569877	30.6927	1000	-6.52749e-07	14.1282	14.1166	11.9727	11.9727	14.1282	14.1166	11.9727	14.1282	14.1166	514.671	-0	-500
47.25	0.0569877	0.0569877	0.0569877	30.6927	1000	-6.52749e-07	14.1262	14.1147	11.971	11.971	14.1262	14.1147	11.971	14.1262	14.1147	514.598	-0	-500
47.3333	0.0569877	0.0569877	0.0569877	30.6927	1000	-6.52749e-07	14.1243	14.1128	11.9693	11.9693	14.1243	14.1128	11.9693	14.1243	14.1128	514.526	-0	-500
47.4167	0.0569877	0.0569877	0.0569877	30.6927	1000	-6.52749e-07	14.1223	14.1109	11.9677	11.9677	14.1223	14.1109	11.9677	14.1223	14.1109	514.453	-0	-500
47.5	0.0569877	0.0569877	0.0569877	30.6927	1000	-6.52749e-07	14.1204	14.109	11.966	11.966	14.1204	14.109	11.966	14.1204	14.109	514.382	-0	-500
47.5833	0.0569877	0.0569877	0.0569877	30.6927	1000	-6.52749e-07	14.1184	14.1071	11.9643	11.9643	14.1184	14.1071	11.9643	14.1184	14.1071	514.31	-0	-500
47.6667	0.0569877	0.0569877	0.0569877	30.6927	1000	-6.52749e-07	14.1165	14.1053	11.9627	11.9627	14.1165	14.1053	11.9627	14.1165	14.1053	514.239	-0	-500
47.75	0.0569877	0.0569877	0.0569877	30.6927	1000	-6.52749e-07	14.1146	14.1034	11.961	11.961	14.1146	14.1034	11.961	14.1146	14.1034	514.168	-0	-500
47.8333	0.0569877	0.0569877	0.0569877	30.6927	1000	-6.52749e-07	14.1127	14.1015	11.9594	11.9594	14.1127	14.1015	11.9594	14.1127	14.1015	514.098	-0	-500
47.9167	0.0569877	0.0569877	0.0569877	30.6927	1000	-6.52749e-07	14.1108	14.0997	11.9578	11.9578	14.1108	14.0997	11.9578	14.1108	14.0997	514.028	-0	-500
48	0.0569877	0.0569877	0.0569877	30.6927	1000	-6.52749e-07	14.1089	14.0979	11.9561	11.9561	14.1089	14.0979	11.9561	14.1089	14.0979	513.958	-0	-500
