Time [h]	NetworkElement(id=101).FluidMassFlux [kg/s]	Pump.FluidMassFlux [kg/s]	Heat Exchanger.FluidMassFlux [kg/s]	NetworkElement(id=101).OutletNodePressure [Pa]	Pump.OutletNodePressure [Pa]	Heat Exchanger.OutletNodePressure [Pa]	NetworkElement(id=101).InletNodeTemperature [C]	Pump.InletNodeTemperature [C]	Heat Exchanger.InletNodeTemperature [C]	NetworkElement(id=101).OutletNodeTemperature [C]	Pump.OutletNodeTemperature [C]	Heat Exchanger.OutletNodeTemperature [C]	NetworkElement(id=101).FluidTemperature [C]	Pump.FluidTemperature [C]	Heat Exchanger.FluidTemperature [C]	NetworkElement(id=101).FlowElementHeatLoss [W]	Pump.FlowElementHeatLoss [W]	NetworkElement(id=301).FlowElementHeatLoss [W]
0	0.0569877	0.0569877	0.0569877	30.6927	1000	-6.52749e-07	20	20	20	20	20	20	20	20	20	859.74	-0	-500
0.00277778	0.0569877	0.0569877	0.0569877	30.6927	1000	-6.52749e-07	20	20.0029	19.9609	19.9609	20	20.0029	19.9609	20	20.0029	858.061	-0	-500
0.00555556	0.0569877	0.0569877	0.0569877	30.6927	1000	-6.52749e-07	20.0001	20.0058	19.922	19.922	20.0001	20.0058	19.922	20.0001	20.0058	856.386	-0	-500
0.00833333	0.0569877	0.0569877	0.0569877	30.6927	1000	-6.52749e-07	20.0001	20.0085	19.8844	19.8844	20.0001	20.0085	19.8844	20.0001	20.0085	854.771	-0	-500
0.0111111	0.0569877	0.0569877	0.0569877	30.6927	1000	-6.52749e-07	20.0002	20.0111	19.8471	19.8471	20.0002	20.0111	19.8471	20.0002	20.0111	853.169	-0	-500
0.0138889	0.0569877	0.0569877	0.0569877	30.6927	1000	-6.52749e-07	20.0003	20.0138	19.8102	19.8102	20.0003	20.0138	19.8102	20.0003	20.0138	851.581	-0	-500
0.0166667	0.0569877	0.0569877	0.0569877	30.6927	1000	-6.52749e-07	20.0004	20.0164	19.7736	19.7736	20.0004	20.0164	19.7736	20.0004	20.0164	850.007	-0	-500
0.0194444	0.0569877	0.0569877	0.0569877	30.6927	1000	-6.52749e-07	20.0005	20.0189	19.7373	19.7373	20.0005	20.0189	19.7373	20.0005	20.0189	848.447	-0	-500
0.0222222	0.0569877	0.0569877	0.0569877	30.6927	1000	-6.52749e-07	20.0007	20.0214	19.7013	19.7013	20.0007	20.0214	19.7013	20.0007	20.0214	846.9	-0	-500
0.025	0.0569877	0.0569877	0.0569877	30.6927	1000	-6.52749e-07	20.0008	20.0239	19.6657	19.6657	20.0008	20.0239	19.6657	20.0008	20.0239	845.367	-0	-500
0.0277778	0.0569877	0.0569877	0.0569877	30.6927	1000	-6.52749e-07	20.0009	20.0264	19.6303	19.6303	20.0009	20.0264	19.6303	20.0009	20.0264	843.848	-0	-500
0.0305556	0.0569877	0.0569877	0.0569877	30.6927	1000	-6.52749e-07	20.0011	20.0288	19.5956	19.5956	20.0011	20.0288	19.5956	20.0011	20.0288	842.357	-0	-500
0.0333333	0.0569877	0.0569877	0.0569877	30.6927	1000	-6.52749e-07	20.0013	20.0311	19.5614	19.5614	20.0013	20.0311	19.5614	20.0013	20.0311	840.884	-0	-500
0.0361111	0.0569877	0.0569877	0.0569877	30.6927	1000	-6.52749e-07	20.0014	20.0334	19.5275	19.5275	20.0014	20.0334	19.5275	20.0014	20.0334	839.428	-0	-500
0.0388889	0.0569877	0.0569877	0.0569877	30.6927	1000	-6.52749e-07	20.0016	20.0356	19.494	19.494	20.0016	20.0356	19.494	20.0016	20.0356	837.989	-0	-500
0.0416667	0.0569877	0.0569877	0.0569877	30.6927	1000	-6.52749e-07	20.0018	20.0378	19.4609	19.4609	20.0018	20.0378	19.4609	20.0018	20.0378	836.568	-0	-500
0.0444444	0.0569877	0.0569877	0.0569877	30.6927	1000	-6.52749e-07	20.002	20.0399	19.4283	19.4283	20.002	20.0399	19.4283	20.002	20.0399	835.163	-0	-500
0.0472222	0.0569877	0.0569877	0.0569877	30.6927	1000	-6.52749e-07	20.0022	20.042	19.396	19.396	20.0022	20.042	19.396	20.0022	20.042	833.775	-0	-500
0.05	0.0569877	0.0569877	0.0569877	30.6927	1000	-6.52749e-07	20.0025	20.0441	19.3641	19.3641	20.0025	20.0441	19.3641	20.0025	20.0441	832.405	-0	-500
0.0527778	0.0569877	0.0569877	0.0569877	30.6927	1000	-6.52749e-07	20.0027	20.0461	19.3326	19.3326	20.0027	20.0461	19.3326	20.0027	20.0461	831.051	-0	-500
0.0555556	0.0569877	0.0569877	0.0569877	30.6927	1000	-6.52749e-07	20.003	20.048	19.3015	19.3015	20.003	20.048	19.3015	20.003	20.048	829.715	-0	-500
0.0583333	0.0569877	0.0569877	0.0569877	30.6927	1000	-6.52749e-07	20.0032	20.0499	19.2708	19.2708	20.0032	20.0499	19.2708	20.0032	20.0499	828.395	-0	-500
0.0611111	0.0569877	0.0569877	0.0569877	30.6927	1000	-6.52749e-07	20.0035	20.0518	19.2405	19.2405	20.0035	20.0518	19.2405	20.0035	20.0518	827.093	-0	-500
0.0638889	0.0569877	0.0569877	0.0569877	30.6927	1000	-6.52749e-07	20.0038	20.0536	19.2106	19.2106	20.0038	20.0536	19.2106	20.0038	20.0536	825.807	-0	-500
0.0666667	0.0569877	0.0569877	0.0569877	30.6927	1000	-6.52749e-07	20.004	20.0554	19.1811	19.1811	20.004	20.0554	19.1811	20.004	20.0554	824.539	-0	-500
0.0694444	0.0569877	0.0569877	0.0569877	30.6927	1000	-6.52749e-07	20.0043	20.0571	19.152	19.152	20.0043	20.0571	19.152	20.0043	20.0571	823.288	-0	-500
0.0722222	0.0569877	0.0569877	0.0569877	30.6927	1000	-6.52749e-07	20.0046	20.0588	19.1233	19.1233	20.0046	20.0588	19.1233	20.0046	20.0588	822.054	-0	-500
0.075	0.0569877	0.0569877	0.0569877	30.6927	1000	-6.52749e-07	20.0049	20.0605	19.0948	19.0948	20.0049	20.0605	19.0948	20.0049	20.0605	820.829	-0	-500
0.0777778	0.0569877	0.0569877	0.0569877	30.6927	1000	-6.52749e-07	20.0053	20.0621	19.0667	19.0667	20.0053	20.0621	19.0667	20.0053	20.0621	819.618	-0	-500
0.0805556	0.0569877	0.0569877	0.0569877	30.6927	1000	-6.52749e-07	20.0056	20.0637	19.0388	19.0388	20.0056	20.0637	19.0388	20.0056	20.0637	818.423	-0	-500
0.0833333	0.0569877	0.0569877	0.0569877	30.6927	1000	-6.52749e-07	20.0059	20.0652	19.0114	19.0114	20.0059	20.0652	19.0114	20.0059	20.0652	817.243	-0	-500
0.0861111	0.0569877	0.0569877	0.0569877	30.6927	1000	-6.52749e-07	20.0062	20.0667	18.9843	18.9843	20.0062	20.0667	18.9843	20.0062	20.0667	816.079	-0	-500
0.0888889	0.0569877	0.0569877	0.0569877	30.6927	1000	-6.52749e-07	20.0065	20.0682	18.9576	18.9576	20.0065	20.0682	18.9576	20.0065	20.0682	814.931	-0	-500
0.0916667	0.0569877	0.0569877	0.0569877	30.6927	1000	-6.52749e-07	20.0069	20.0696	18.9313	18.9313	20.0069	20.0696	18.9313	20.0069	20.0696	813.798	-0	-500
0.0944444	0.0569877	0.0569877	0.0569877	30.6927	1000	-6.52749e-07	20.0072	20.071	18.9053	18.9053	20.0072	20.071	18.9053	20.0072	20.071	812.681	-0	-500
0.0972222	0.0569877	0.0569877	0.0569877	30.6927	1000	-6.52749e-07	20.0076	20.0723	18.8796	18.8796	20.0076	20.0723	18.8796	20.0076	20.0723	811.579	-0	-500
0.1	0.0569877	0.0569877	0.0569877	30.6927	1000	-6.52749e-07	20.008	20.0736	18.8544	18.8544	20.008	20.0736	18.8544	20.008	20.0736	810.493	-0	-500
0.102778	0.0569877	0.0569877	0.0569877	30.6927	1000	-6.52749e-07	20.0083	20.0749	18.8295	18.8295	20.0083	20.0749	18.8295	20.0083	20.0749	809.423	-0	-500
0.105556	0.0569877	0.0569877	0.0569877	30.6927	1000	-6.52749e-07	20.0087	20.0761	18.805	18.805	20.0087	20.0761	18.805	20.0087	20.0761	808.369	-0	-500
0.108333	0.0569877	0.0569877	0.0569877	30.6927	1000	-6.52749e-07	20.0091	20.0772	18.7808	18.7808	20.0091	20.0772	18.7808	20.0091	20.0772	807.33	-0	-500
0.111111	0.0569877	0.0569877	0.0569877	30.6927	1000	-6.52749e-07	20.0095	20.0784	18.7568	18.7568	20.0095	20.0784	18.7568	20.0095	20.0784	806.297	-0	-500
0.113889	0.0569877	0.0569877	0.0569877	30.6927	1000	-6.52749e-07	20.0098	20.0795	18.733	18.733	20.0098	20.0795	18.733	20.0098	20.0795	805.274	-0	-500
0.116667	0.0569877	0.0569877	0.0569877	30.6927	1000	-6.52749e-07	20.0102	20.0806	18.7095	18.7095	20.0102	20.0806	18.7095	20.0102	20.0806	804.264	-0	-500
0.119444	0.0569877	0.0569877	0.0569877	30.6927	1000	-6.52749e-07	20.0106	20.0817	18.6863	18.6863	20.0106	20.0817	18.6863	20.0106	20.0817	803.268	-0	-500
0.122222	0.0569877	0.0569877	0.0569877	30.6927	1000	-6.52749e-07	20.011	20.0827	18.6635	18.6635	20.011	20.0827	18.6635	20.011	20.0827	802.286	-0	-500
0.125	0.0569877	0.0569877	0.0569877	30.6927	1000	-6.52749e-07	20.0114	20.0837	18.6409	18.6409	20.0114	20.0837	18.6409	20.0114	20.0837	801.318	-0	-500
0.127778	0.0569877	0.0569877	0.0569877	30.6927	1000	-6.52749e-07	20.0118	20.0846	18.6187	18.6187	20.0118	20.0846	18.6187	20.0118	20.0846	800.363	-0	-500
0.130556	0.0569877	0.0569877	0.0569877	30.6927	1000	-6.52749e-07	20.0122	20.0856	18.5968	18.5968	20.0122	20.0856	18.5968	20.0122	20.0856	799.421	-0	-500
0.133333	0.0569877	0.0569877	0.0569877	30.6927	1000	-6.52749e-07	20.0126	20.0864	18.5752	18.5752	20.0126	20.0864	18.5752	20.0126	20.0864	798.494	-0	-500
0.136111	0.0569877	0.0569877	0.0569877	30.6927	1000	-6.52749e-07	20.013	20.0873	18.554	18.554	20.013	20.0873	18.554	20.013	20.0873	797.58	-0	-500
0.138889	0.0569877	0.0569877	0.0569877	30.6927	1000	-6.52749e-07	20.0134	20.0881	18.533	18.533	20.0134	20.0881	18.533	20.0134	20.0881	796.679	-0	-500
0.141667	0.0569877	0.0569877	0.0569877	30.6927	1000	-6.52749e-07	20.0139	20.0889	18.5124	18.5124	20.0139	20.0889	18.5124	20.0139	20.0889	795.793	-0	-500
0.144444	0.0569877	0.0569877	0.0569877	30.6927	1000	-6.52749e-07	20.0143	20.0896	18.4921	18.4921	20.0143	20.0896	18.4921	20.0143	20.0896	794.92	-0	-500
0.147222	0.0569877	0.0569877	0.0569877	30.6927	1000	-6.52749e-07	20.0147	20.0903	18.4719	18.4719	20.0147	20.0903	18.4719	20.0147	20.0903	794.051	-0	-500
0.15	0.0569877	0.0569877	0.0569877	30.6927	1000	-6.52749e-07	20.0151	20.091	18.4519	18.4519	20.0151	20.091	18.4519	20.0151	20.091	793.19	-0	-500
0.152778	0.0569877	0.0569877	0.0569877	30.6927	1000	-6.52749e-07	20.0155	20.0917	18.4321	18.4321	20.0155	20.0917	18.4321	20.0155	20.0917	792.341	-0	-500
0.155556	0.0569877	0.0569877	0.0569877	30.6927	1000	-6.52749e-07	20.016	20.0923	18.4126	18.4126	20.016	20.0923	18.4126	20.016	20.0923	791.503	-0	-500
0.158333	0.0569877	0.0569877	0.0569877	30.6927	1000	-6.52749e-07	20.0164	20.093	18.3934	18.3934	20.0164	20.093	18.3934	20.0164	20.093	790.677	-0	-500
0.161111	0.0569877	0.0569877	0.0569877	30.6927	1000	-6.52749e-07	20.0168	20.0936	18.3745	18.3745	20.0168	20.0936	18.3745	20.0168	20.0936	789.863	-0	-500
0.163889	0.0569877	0.0569877	0.0569877	30.6927	1000	-6.52749e-07	20.0172	20.0941	18.3558	18.3558	20.0172	20.0941	18.3558	20.0172	20.0941	789.06	-0	-500
0.166667	0.0569877	0.0569877	0.0569877	30.6927	1000	-6.52749e-07	20.0177	20.0946	18.3374	18.3374	20.0177	20.0946	18.3374	20.0177	20.0946	788.269	-0	-500
0.169444	0.0569877	0.0569877	0.0569877	30.6927	1000	-6.52749e-07	20.0181	20.0951	18.3192	18.3192	20.0181	20.0951	18.3192	20.0181	20.0951	787.489	-0	-500
0.172222	0.0569877	0.0569877	0.0569877	30.6927	1000	-6.52749e-07	20.0185	20.0956	18.3014	18.3014	20.0185	20.0956	18.3014	20.0185	20.0956	786.722	-0	-500
0.175	0.0569877	0.0569877	0.0569877	30.6927	1000	-6.52749e-07	20.019	20.096	18.2838	18.2838	20.019	20.096	18.2838	20.019	20.096	785.965	-0	-500
0.177778	0.0569877	0.0569877	0.0569877	30.6927	1000	-6.52749e-07	20.0194	20.0964	18.2665	18.2665	20.0194	20.0964	18.2665	20.0194	20.0964	785.221	-0	-500
0.180556	0.0569877	0.0569877	0.0569877	30.6927	1000	-6.52749e-07	20.0198	20.0968	18.2494	18.2494	20.0198	20.0968	18.2494	20.0198	20.0968	784.488	-0	-500
0.183333	0.0569877	0.0569877	0.0569877	30.6927	1000	-6.52749e-07	20.0203	20.0972	18.2325	18.2325	20.0203	20.0972	18.2325	20.0203	20.0972	783.76	-0	-500
0.186111	0.0569877	0.0569877	0.0569877	30.6927	1000	-6.52749e-07	20.0207	20.0975	18.2157	18.2157	20.0207	20.0975	18.2157	20.0207	20.0975	783.038	-0	-500
0.188889	0.0569877	0.0569877	0.0569877	30.6927	1000	-6.52749e-07	20.0211	20.0979	18.1991	18.1991	20.0211	20.0979	18.1991	20.0211	20.0979	782.326	-0	-500
0.191667	0.0569877	0.0569877	0.0569877	30.6927	1000	-6.52749e-07	20.0216	20.0982	18.1828	18.1828	20.0216	20.0982	18.1828	20.0216	20.0982	781.623	-0	-500
0.194444	0.0569877	0.0569877	0.0569877	30.6927	1000	-6.52749e-07	20.022	20.0984	18.1667	18.1667	20.022	20.0984	18.1667	20.022	20.0984	780.93	-0	-500
0.197222	0.0569877	0.0569877	0.0569877	30.6927	1000	-6.52749e-07	20.0224	20.0987	18.1507	18.1507	20.0224	20.0987	18.1507	20.0224	20.0987	780.246	-0	-500
0.2	0.0569877	0.0569877	0.0569877	30.6927	1000	-6.52749e-07	20.0228	20.0989	18.1351	18.1351	20.0228	20.0989	18.1351	20.0228	20.0989	779.572	-0	-500
0.202778	0.0569877	0.0569877	0.0569877	30.6927	1000	-6.52749e-07	20.0233	20.0991	18.1196	18.1196	20.0233	20.0991	18.1196	20.0233	20.0991	778.907	-0	-500
0.205556	0.0569877	0.0569877	0.0569877	30.6927	1000	-6.52749e-07	20.0237	20.0993	18.1043	18.1043	20.0237	20.0993	18.1043	20.0237	20.0993	778.251	-0	-500
0.208333	0.0569877	0.0569877	0.0569877	30.6927	1000	-6.52749e-07	20.0241	20.0995	18.0893	18.0893	20.0241	20.0995	18.0893	20.0241	20.0995	777.604	-0	-500
0.211111	0.0569877	0.0569877	0.0569877	30.6927	1000	-6.52749e-07	20.0245	20.0996	18.0745	18.0745	20.0245	20.0996	18.0745	20.0245	20.0996	776.967	-0	-500
0.213889	0.0569877	0.0569877	0.0569877	30.6927	1000	-6.52749e-07	20.0249	20.0997	18.0598	18.0598	20.0249	20.0997	18.0598	20.0249	20.0997	776.338	-0	-500
0.216667	0.0569877	0.0569877	0.0569877	30.6927	1000	-6.52749e-07	20.0254	20.0998	18.0454	18.0454	20.0254	20.0998	18.0454	20.0254	20.0998	775.719	-0	-500
0.219444	0.0569877	0.0569877	0.0569877	30.6927	1000	-6.52749e-07	20.0258	20.0999	18.0312	18.0312	20.0258	20.0999	18.0312	20.0258	20.0999	775.108	-0	-500
0.222222	0.0569877	0.0569877	0.0569877	30.6927	1000	-6.52749e-07	20.0262	20.0999	18.0172	18.0172	20.0262	20.0999	18.0172	20.0262	20.0999	774.506	-0	-500
0.225	0.0569877	0.0569877	0.0569877	30.6927	1000	-6.52749e-07	20.0266	20.1	18.0034	18.0034	20.0266	20.1	18.0034	20.0266	20.1	773.913	-0	-500
0.227778	0.0569877	0.0569877	0.0569877	30.6927	1000	-6.52749e-07	20.027	20.1	17.9898	17.9898	20.027	20.1	17.9898	20.027	20.1	773.329	-0	-500
0.230556	0.0569877	0.0569877	0.0569877	30.6927	1000	-6.52749e-07	20.0274	20.1	17.9764	17.9764	20.0274	20.1	17.9764	20.0274	20.1	772.753	-0	-500
0.233333	0.0569877	0.0569877	0.0569877	30.6927	1000	-6.52749e-07	20.0278	20.0999	17.9632	17.9632	20.0278	20.0999	17.9632	20.0278	20.0999	772.186	-0	-500
0.236111	0.0569877	0.0569877	0.0569877	30.6927	1000	-6.52749e-07	20.0283	20.0999	17.9502	17.9502	20.0283	20.0999	17.9502	20.0283	20.0999	771.627	-0	-500
0.238889	0.0569877	0.0569877	0.0569877	30.6927	1000	-6.52749e-07	20.0287	20.0998	17.9374	17.9374	20.0287	20.0998	17.9374	20.0287	20.0998	771.075	-0	-500
0.241667	0.0569877	0.0569877	0.0569877	30.6927	1000	-6.52749e-07	20.0291	20.0997	17.9247	17.9247	20.0291	20.0997	17.9247	20.0291	20.0997	770.529	-0	-500
0.244444	0.0569877	0.0569877	0.0569877	30.6927	1000	-6.52749e-07	20.0295	20.0996	17.9121	17.9121	20.0295	20.0996	17.9121	20.0295	20.0996	769.989	-0	-500
0.247222	0.0569877	0.0569877	0.0569877	30.6927	1000	-6.52749e-07	20.0299	20.0995	17.8998	17.8998	20.0299	20.0995	17.8998	20.0299	20.0995	769.458	-0	-500
0.25	0.0569877	0.0569877	0.0569877	30.6927	1000	-6.52749e-07	20.0303	20.0993	17.8876	17.8876	20.0303	20.0993	17.8876	20.0303	20.0993	768.933	-0	-500
0.252778	0.0569877	0.0569877	0.0569877	30.6927	1000	-6.52749e-07	20.0306	20.0992	17.8755	17.8755	20.0306	20.0992	17.8755	20.0306	20.0992	768.416	-0	-500
0.255556	0.0569877	0.0569877	0.0569877	30.6927	1000	-6.52749e-07	20.031	20.099	17.8637	17.8637	20.031	20.099	17.8637	20.031	20.099	767.906	-0	-500
0.258333	0.0569877	0.0569877	0.0569877	30.6927	1000	-6.52749e-07	20.0314	20.0988	17.852	17.852	20.0314	20.0988	17.852	20.0314	20.0988	767.403	-0	-500
0.261111	0.0569877	0.0569877	0.0569877	30.6927	1000	-6.52749e-07	20.0318	20.0986	17.8405	17.8405	20.0318	20.0986	17.8405	20.0318	20.0986	766.908	-0	-500
0.263889	0.0569877	0.0569877	0.0569877	30.6927	1000	-6.52749e-07	20.0322	20.0983	17.8291	17.8291	20.0322	20.0983	17.8291	20.0322	20.0983	766.419	-0	-500
0.266667	0.0569877	0.0569877	0.0569877	30.6927	1000	-6.52749e-07	20.0326	20.0981	17.8179	17.8179	20.0326	20.0981	17.8179	20.0326	20.0981	765.937	-0	-500
0.269444	0.0569877	0.0569877	0.0569877	30.6927	1000	-6.52749e-07	20.0329	20.0978	17.8068	17.8068	20.0329	20.0978	17.8068	20.0329	20.0978	765.461	-0	-500
0.272222	0.0569877	0.0569877	0.0569877	30.6927	1000	-6.52749e-07	20.0333	20.0976	17.7959	17.7959	20.0333	20.0976	17.7959	20.0333	20.0976	764.992	-0	-500
0.275	0.0569877	0.0569877	0.0569877	30.6927	1000	-6.52749e-07	20.0337	20.0973	17.7851	17.7851	20.0337	20.0973	17.7851	20.0337	20.0973	764.53	-0	-500
0.277778	0.0569877	0.0569877	0.0569877	30.6927	1000	-6.52749e-07	20.034	20.0969	17.7745	17.7745	20.034	20.0969	17.7745	20.034	20.0969	764.074	-0	-500
0.280556	0.0569877	0.0569877	0.0569877	30.6927	1000	-6.52749e-07	20.0344	20.0966	17.7641	17.7641	20.0344	20.0966	17.7641	20.0344	20.0966	763.624	-0	-500
0.283333	0.0569877	0.0569877	0.0569877	30.6927	1000	-6.52749e-07	20.0347	20.0963	17.7538	17.7538	20.0347	20.0963	17.7538	20.0347	20.0963	763.18	-0	-500
0.286111	0.0569877	0.0569877	0.0569877	30.6927	1000	-6.52749e-07	20.0351	20.0959	17.7436	17.7436	20.0351	20.0959	17.7436	20.0351	20.0959	762.743	-0	-500
0.288889	0.0569877	0.0569877	0.0569877	30.6927	1000	-6.52749e-07	20.0354	20.0956	17.7335	17.7335	20.0354	20.0956	17.7335	20.0354	20.0956	762.312	-0	-500
0.291667	0.0569877	0.0569877	0.0569877	30.6927	1000	-6.52749e-07	20.0358	20.0952	17.7236	17.7236	20.0358	20.0952	17.7236	20.0358	20.0952	761.886	-0	-500
0.294444	0.0569877	0.0569877	0.0569877	30.6927	1000	-6.52749e-07	20.0361	20.0948	17.7139	17.7139	20.0361	20.0948	17.7139	20.0361	20.0948	761.466	-0	-500
0.297222	0.0569877	0.0569877	0.0569877	30.6927	1000	-6.52749e-07	20.0364	20.0944	17.7043	17.7043	20.0364	20.0944	17.7043	20.0364	20.0944	761.053	-0	-500
0.3	0.0569877	0.0569877	0.0569877	30.6927	1000	-6.52749e-07	20.0368	20.0939	17.6948	17.6948	20.0368	20.0939	17.6948	20.0368	20.0939	760.646	-0	-500
0.302778	0.0569877	0.0569877	0.0569877	30.6927	1000	-6.52749e-07	20.0371	20.0935	17.6854	17.6854	20.0371	20.0935	17.6854	20.0371	20.0935	760.244	-0	-500
0.305556	0.0569877	0.0569877	0.0569877	30.6927	1000	-6.52749e-07	20.0374	20.0931	17.6762	17.6762	20.0374	20.0931	17.6762	20.0374	20.0931	759.847	-0	-500
0.308333	0.0569877	0.0569877	0.0569877	30.6927	1000	-6.52749e-07	20.0377	20.0926	17.6671	17.6671	20.0377	20.0926	17.6671	20.0377	20.0926	759.456	-0	-500
0.311111	0.0569877	0.0569877	0.0569877	30.6927	1000	-6.52749e-07	20.0381	20.0921	17.6582	17.6582	20.0381	20.0921	17.6582	20.0381	20.0921	759.071	-0	-500
0.313889	0.0569877	0.0569877	0.0569877	30.6927	1000	-6.52749e-07	20.0384	20.0916	17.6493	17.6493	20.0384	20.0916	17.6493	20.0384	20.0916	758.691	-0	-500
0.316667	0.0569877	0.0569877	0.0569877	30.6927	1000	-6.52749e-07	20.0387	20.0911	17.6406	17.6406	20.0387	20.0911	17.6406	20.0387	20.0911	758.315	-0	-500
0.319444	0.0569877	0.0569877	0.0569877	30.6927	1000	-6.52749e-07	20.039	20.0906	17.632	17.632	20.039	20.0906	17.632	20.039	20.0906	757.945	-0	-500
0.322222	0.0569877	0.0569877	0.0569877	30.6927	1000	-6.52749e-07	20.0393	20.0901	17.6235	17.6235	20.0393	20.0901	17.6235	20.0393	20.0901	757.58	-0	-500
0.325	0.0569877	0.0569877	0.0569877	30.6927	1000	-6.52749e-07	20.0396	20.0895	17.6151	17.6151	20.0396	20.0895	17.6151	20.0396	20.0895	757.22	-0	-500
0.327778	0.0569877	0.0569877	0.0569877	30.6927	1000	-6.52749e-07	20.0399	20.089	17.6068	17.6068	20.0399	20.089	17.6068	20.0399	20.089	756.864	-0	-500
0.330556	0.0569877	0.0569877	0.0569877	30.6927	1000	-6.52749e-07	20.0401	20.0884	17.5987	17.5987	20.0401	20.0884	17.5987	20.0401	20.0884	756.513	-0	-500
0.333333	0.0569877	0.0569877	0.0569877	30.6927	1000	-6.52749e-07	20.0404	20.0879	17.5906	17.5906	20.0404	20.0879	17.5906	20.0404	20.0879	756.167	-0	-500
0.336111	0.0569877	0.0569877	0.0569877	30.6927	1000	-6.52749e-07	20.0407	20.0873	17.5827	17.5827	20.0407	20.0873	17.5827	20.0407	20.0873	755.825	-0	-500
0.338889	0.0569877	0.0569877	0.0569877	30.6927	1000	-6.52749e-07	20.0409	20.0867	17.5748	17.5748	20.0409	20.0867	17.5748	20.0409	20.0867	755.488	-0	-500
0.341667	0.0569877	0.0569877	0.0569877	30.6927	1000	-6.52749e-07	20.0412	20.0861	17.5671	17.5671	20.0412	20.0861	17.5671	20.0412	20.0861	755.155	-0	-500
0.344444	0.0569877	0.0569877	0.0569877	30.6927	1000	-6.52749e-07	20.0415	20.0855	17.5594	17.5594	20.0415	20.0855	17.5594	20.0415	20.0855	754.826	-0	-500
0.347222	0.0569877	0.0569877	0.0569877	30.6927	1000	-6.52749e-07	20.0417	20.0849	17.5518	17.5518	20.0417	20.0849	17.5518	20.0417	20.0849	754.501	-0	-500
0.35	0.0569877	0.0569877	0.0569877	30.6927	1000	-6.52749e-07	20.042	20.0843	17.5444	17.5444	20.042	20.0843	17.5444	20.042	20.0843	754.181	-0	-500
0.352778	0.0569877	0.0569877	0.0569877	30.6927	1000	-6.52749e-07	20.0422	20.0836	17.5371	17.5371	20.0422	20.0836	17.5371	20.0422	20.0836	753.869	-0	-500
0.355556	0.0569877	0.0569877	0.0569877	30.6927	1000	-6.52749e-07	20.0424	20.083	17.53	17.53	20.0424	20.083	17.53	20.0424	20.083	753.562	-0	-500
0.358333	0.0569877	0.0569877	0.0569877	30.6927	1000	-6.52749e-07	20.0427	20.0823	17.523	17.523	20.0427	20.0823	17.523	20.0427	20.0823	753.259	-0	-500
0.361111	0.0569877	0.0569877	0.0569877	30.6927	1000	-6.52749e-07	20.0429	20.0816	17.516	17.516	20.0429	20.0816	17.516	20.0429	20.0816	752.961	-0	-500
0.363889	0.0569877	0.0569877	0.0569877	30.6927	1000	-6.52749e-07	20.0431	20.0809	17.5092	17.5092	20.0431	20.0809	17.5092	20.0431	20.0809	752.666	-0	-500
0.366667	0.0569877	0.0569877	0.0569877	30.6927	1000	-6.52749e-07	20.0434	20.0802	17.5024	17.5024	20.0434	20.0802	17.5024	20.0434	20.0802	752.376	-0	-500
0.369444	0.0569877	0.0569877	0.0569877	30.6927	1000	-6.52749e-07	20.0436	20.0795	17.4958	17.4958	20.0436	20.0795	17.4958	20.0436	20.0795	752.09	-0	-500
0.372222	0.0569877	0.0569877	0.0569877	30.6927	1000	-6.52749e-07	20.0438	20.0788	17.4892	17.4892	20.0438	20.0788	17.4892	20.0438	20.0788	751.808	-0	-500
0.375	0.0569877	0.0569877	0.0569877	30.6927	1000	-6.52749e-07	20.044	20.0781	17.4827	17.4827	20.044	20.0781	17.4827	20.044	20.0781	751.53	-0	-500
0.377778	0.0569877	0.0569877	0.0569877	30.6927	1000	-6.52749e-07	20.0442	20.0773	17.4763	17.4763	20.0442	20.0773	17.4763	20.0442	20.0773	751.256	-0	-500
0.380556	0.0569877	0.0569877	0.0569877	30.6927	1000	-6.52749e-07	20.0444	20.0766	17.47	17.47	20.0444	20.0766	17.47	20.0444	20.0766	750.985	-0	-500
0.383333	0.0569877	0.0569877	0.0569877	30.6927	1000	-6.52749e-07	20.0446	20.0758	17.4638	17.4638	20.0446	20.0758	17.4638	20.0446	20.0758	750.718	-0	-500
0.386111	0.0569877	0.0569877	0.0569877	30.6927	1000	-6.52749e-07	20.0448	20.0751	17.4577	17.4577	20.0448	20.0751	17.4577	20.0448	20.0751	750.454	-0	-500
0.388889	0.0569877	0.0569877	0.0569877	30.6927	1000	-6.52749e-07	20.045	20.0743	17.4517	17.4517	20.045	20.0743	17.4517	20.045	20.0743	750.194	-0	-500
0.391667	0.0569877	0.0569877	0.0569877	30.6927	1000	-6.52749e-07	20.0451	20.0736	17.4457	17.4457	20.0451	20.0736	17.4457	20.0451	20.0736	749.938	-0	-500
0.394444	0.0569877	0.0569877	0.0569877	30.6927	1000	-6.52749e-07	20.0453	20.0728	17.4398	17.4398	20.0453	20.0728	17.4398	20.0453	20.0728	749.685	-0	-500
0.397222	0.0569877	0.0569877	0.0569877	30.6927	1000	-6.52749e-07	20.0455	20.072	17.434	17.434	20.0455	20.072	17.434	20.0455	20.072	749.435	-0	-500
0.4	0.0569877	0.0569877	0.0569877	30.6927	1000	-6.52749e-07	20.0456	20.0712	17.4282	17.4282	20.0456	20.0712	17.4282	20.0456	20.0712	749.188	-0	-500
0.402778	0.0569877	0.0569877	0.0569877	30.6927	1000	-6.52749e-07	20.0458	20.0704	17.4226	17.4226	20.0458	20.0704	17.4226	20.0458	20.0704	748.944	-0	-500
0.405556	0.0569877	0.0569877	0.0569877	30.6927	1000	-6.52749e-07	20.0459	20.0696	17.417	17.417	20.0459	20.0696	17.417	20.0459	20.0696	748.703	-0	-500
0.408333	0.0569877	0.0569877	0.0569877	30.6927	1000	-6.52749e-07	20.0461	20.0688	17.4114	17.4114	20.0461	20.0688	17.4114	20.0461	20.0688	748.465	-0	-500
0.411111	0.0569877	0.0569877	0.0569877	30.6927	1000	-6.52749e-07	20.0462	20.068	17.406	17.406	20.0462	20.068	17.406	20.0462	20.068	748.23	-0	-500
0.413889	0.0569877	0.0569877	0.0569877	30.6927	1000	-6.52749e-07	20.0463	20.0672	17.4006	17.4006	20.0463	20.0672	17.4006	20.0463	20.0672	747.998	-0	-500
0.416667	0.0569877	0.0569877	0.0569877	30.6927	1000	-6.52749e-07	20.0465	20.0663	17.3952	17.3952	20.0465	20.0663	17.3952	20.0465	20.0663	747.768	-0	-500
0.419444	0.0569877	0.0569877	0.0569877	30.6927	1000	-6.52749e-07	20.0466	20.0655	17.3899	17.3899	20.0466	20.0655	17.3899	20.0466	20.0655	747.541	-0	-500
0.422222	0.0569877	0.0569877	0.0569877	30.6927	1000	-6.52749e-07	20.0467	20.0647	17.3847	17.3847	20.0467	20.0647	17.3847	20.0467	20.0647	747.317	-0	-500
0.425	0.0569877	0.0569877	0.0569877	30.6927	1000	-6.52749e-07	20.0468	20.0638	17.3795	17.3795	20.0468	20.0638	17.3795	20.0468	20.0638	747.095	-0	-500
0.427778	0.0569877	0.0569877	0.0569877	30.6927	1000	-6.52749e-07	20.0469	20.063	17.3744	17.3744	20.0469	20.063	17.3744	20.0469	20.063	746.875	-0	-500
0.430556	0.0569877	0.0569877	0.0569877	30.6927	1000	-6.52749e-07	20.047	20.0621	17.3694	17.3694	20.047	20.0621	17.3694	20.047	20.0621	746.658	-0	-500
0.433333	0.0569877	0.0569877	0.0569877	30.6927	1000	-6.52749e-07	20.0471	20.0613	17.3644	17.3644	20.0471	20.0613	17.3644	20.0471	20.0613	746.442	-0	-500
0.436111	0.0569877	0.0569877	0.0569877	30.6927	1000	-6.52749e-07	20.0472	20.0604	17.3594	17.3594	20.0472	20.0604	17.3594	20.0472	20.0604	746.229	-0	-500
0.438889	0.0569877	0.0569877	0.0569877	30.6927	1000	-6.52749e-07	20.0472	20.0595	17.3547	17.3547	20.0472	20.0595	17.3547	20.0472	20.0595	746.025	-0	-500
0.441667	0.0569877	0.0569877	0.0569877	30.6927	1000	-6.52749e-07	20.0473	20.0586	17.35	17.35	20.0473	20.0586	17.35	20.0473	20.0586	745.825	-0	-500
0.444444	0.0569877	0.0569877	0.0569877	30.6927	1000	-6.52749e-07	20.0474	20.0577	17.3454	17.3454	20.0474	20.0577	17.3454	20.0474	20.0577	745.628	-0	-500
0.447222	0.0569877	0.0569877	0.0569877	30.6927	1000	-6.52749e-07	20.0475	20.0568	17.3409	17.3409	20.0475	20.0568	17.3409	20.0475	20.0568	745.433	-0	-500
0.45	0.0569877	0.0569877	0.0569877	30.6927	1000	-6.52749e-07	20.0475	20.0559	17.3364	17.3364	20.0475	20.0559	17.3364	20.0475	20.0559	745.241	-0	-500
0.452778	0.0569877	0.0569877	0.0569877	30.6927	1000	-6.52749e-07	20.0476	20.055	17.332	17.332	20.0476	20.055	17.332	20.0476	20.055	745.052	-0	-500
0.455556	0.0569877	0.0569877	0.0569877	30.6927	1000	-6.52749e-07	20.0476	20.0541	17.3277	17.3277	20.0476	20.0541	17.3277	20.0476	20.0541	744.865	-0	-500
0.458333	0.0569877	0.0569877	0.0569877	30.6927	1000	-6.52749e-07	20.0477	20.0532	17.3234	17.3234	20.0477	20.0532	17.3234	20.0477	20.0532	744.68	-0	-500
0.461111	0.0569877	0.0569877	0.0569877	30.6927	1000	-6.52749e-07	20.0477	20.0522	17.3192	17.3192	20.0477	20.0522	17.3192	20.0477	20.0522	744.498	-0	-500
0.463889	0.0569877	0.0569877	0.0569877	30.6927	1000	-6.52749e-07	20.0477	20.0513	17.315	17.315	20.0477	20.0513	17.315	20.0477	20.0513	744.318	-0	-500
0.466667	0.0569877	0.0569877	0.0569877	30.6927	1000	-6.52749e-07	20.0478	20.0504	17.3108	17.3108	20.0478	20.0504	17.3108	20.0478	20.0504	744.141	-0	-500
0.469444	0.0569877	0.0569877	0.0569877	30.6927	1000	-6.52749e-07	20.0478	20.0494	17.3068	17.3068	20.0478	20.0494	17.3068	20.0478	20.0494	743.966	-0	-500
0.472222	0.0569877	0.0569877	0.0569877	30.6927	1000	-6.52749e-07	20.0478	20.0485	17.3027	17.3027	20.0478	20.0485	17.3027	20.0478	20.0485	743.792	-0	-500
0.475	0.0569877	0.0569877	0.0569877	30.6927	1000	-6.52749e-07	20.0478	20.0476	17.2987	17.2987	20.0478	20.0476	17.2987	20.0478	20.0476	743.621	-0	-500
0.477778	0.0569877	0.0569877	0.0569877	30.6927	1000	-6.52749e-07	20.0478	20.0466	17.2948	17.2948	20.0478	20.0466	17.2948	20.0478	20.0466	743.452	-0	-500
0.480556	0.0569877	0.0569877	0.0569877	30.6927	1000	-6.52749e-07	20.0478	20.0456	17.2909	17.2909	20.0478	20.0456	17.2909	20.0478	20.0456	743.285	-0	-500
0.483333	0.0569877	0.0569877	0.0569877	30.6927	1000	-6.52749e-07	20.0478	20.0447	17.2871	17.2871	20.0478	20.0447	17.2871	20.0478	20.0447	743.12	-0	-500
0.486111	0.0569877	0.0569877	0.0569877	30.6927	1000	-6.52749e-07	20.0478	20.0437	17.2833	17.2833	20.0478	20.0437	17.2833	20.0478	20.0437	742.957	-0	-500
0.488889	0.0569877	0.0569877	0.0569877	30.6927	1000	-6.52749e-07	20.0478	20.0428	17.2795	17.2795	20.0478	20.0428	17.2795	20.0478	20.0428	742.795	-0	-500
0.491667	0.0569877	0.0569877	0.0569877	30.6927	1000	-6.52749e-07	20.0478	20.0418	17.2758	17.2758	20.0478	20.0418	17.2758	20.0478	20.0418	742.635	-0	-500
0.494444	0.0569877	0.0569877	0.0569877	30.6927	1000	-6.52749e-07	20.0478	20.0408	17.2721	17.2721	20.0478	20.0408	17.2721	20.0478	20.0408	742.478	-0	-500
0.497222	0.0569877	0.0569877	0.0569877	30.6927	1000	-6.52749e-07	20.0477	20.0398	17.2685	17.2685	20.0477	20.0398	17.2685	20.0477	20.0398	742.321	-0	-500
0.5	0.0569877	0.0569877	0.0569877	30.6927	1000	-6.52749e-07	20.0477	20.0389	17.2649	17.2649	20.0477	20.0389	17.2649	20.0477	20.0389	742.167	-0	-500
0.583333	0.0569877	0.0569877	0.0569877	30.6927	1000	-6.52749e-07	20.044	20.0082	17.1757	17.1757	20.044	20.0082	17.1757	20.044	20.0082	738.333	-0	-500
0.666667	0.0569877	0.0569877	0.0569877	30.6927	1000	-6.52749e-07	20.0358	19.9758	17.1128	17.1128	20.0358	19.9758	17.1128	20.0358	19.9758	735.628	-0	-500
0.75	0.0569877	0.0569877	0.0569877	30.6927	1000	-6.52749e-07	20.0237	19.9426	17.0667	17.0667	20.0237	19.9426	17.0667	20.0237	19.9426	733.648	-0	-500
0.833333	0.0569877	0.0569877	0.0569877	30.6927	1000	-6.52749e-07	20.0082	19.9091	17.0314	17.0314	20.0082	19.9091	17.0314	20.0082	19.9091	732.127	-0	-500
0.916667	0.0569877	0.0569877	0.0569877	30.6927	1000	-6.52749e-07	19.9899	19.8758	17.0026	17.0026	19.9899	19.8758	17.0026	19.9899	19.8758	730.89	-0	-500
1	0.0569877	0.0569877	0.0569877	30.6927	1000	-6.52749e-07	19.9693	19.8428	16.9776	16.9776	19.9693	19.8428	16.9776	19.9693	19.8428	729.816	-0	-500
1.08333	0.0569877	0.0569877	0.0569877	30.6927	1000	-6.52749e-07	19.9467	19.8101	16.9548	16.9548	19.9467	19.8101	16.9548	19.9467	19.8101	728.837	-0	-500
1.16667	0.0569877	0.0569877	0.0569877	30.6927	1000	-6.52749e-07	19.9225	19.7779	16.933	16.933	19.9225	19.7779	16.933	19.9225	19.7779	727.899	-0	-500
1.25	0.0569877	0.0569877	0.0569877	30.6927	1000	-6.52749e-07	19.8971	19.7462	16.9116	16.9116	19.8971	19.7462	16.9116	19.8971	19.7462	726.978	-0	-500
1.33333	0.0569877	0.0569877	0.0569877	30.6927	1000	-6.52749e-07	19.8708	19.7148	16.8898	16.8898	19.8708	19.7148	16.8898	19.8708	19.7148	726.04	-0	-500
1.41667	0.0569877	0.0569877	0.0569877	30.6927	1000	-6.52749e-07	19.8437	19.6839	16.8676	16.8676	19.8437	19.6839	16.8676	19.8437	19.6839	725.089	-0	-500
1.5	0.0569877	0.0569877	0.0569877	30.6927	1000	-6.52749e-07	19.816	19.6533	16.8451	16.8451	19.816	19.6533	16.8451	19.816	19.6533	724.119	-0	-500
1.58333	0.0569877	0.0569877	0.0569877	30.6927	1000	-6.52749e-07	19.7879	19.6231	16.8221	16.8221	19.7879	19.6231	16.8221	19.7879	19.6231	723.13	-0	-500
1.66667	0.0569877	0.0569877	0.0569877	30.6927	1000	-6.52749e-07	19.7594	19.5932	16.7988	16.7988	19.7594	19.5932	16.7988	19.7594	19.5932	722.129	-0	-500
1.75	0.0569877	0.0569877	0.0569877	30.6927	1000	-6.52749e-07	19.7308	19.5636	16.7752	16.7752	19.7308	19.5636	16.7752	19.7308	19.5636	721.114	-0	-500
1.83333	0.0569877	0.0569877	0.0569877	30.6927	1000	-6.52749e-07	19.7019	19.5342	16.7513	16.7513	19.7019	19.5342	16.7513	19.7019	19.5342	720.09	-0	-500
1.91667	0.0569877	0.0569877	0.0569877	30.6927	1000	-6.52749e-07	19.6729	19.505	16.7273	16.7273	19.6729	19.505	16.7273	19.6729	19.505	719.058	-0	-500
2	0.0569877	0.0569877	0.0569877	30.6927	1000	-6.52749e-07	19.644	19.4761	16.7031	16.7031	19.644	19.4761	16.7031	19.644	19.4761	718.017	-0	-500
2.08333	0.0569877	0.0569877	0.0569877	30.6927	1000	-6.52749e-07	19.6151	19.4474	16.6787	16.6787	19.6151	19.4474	16.6787	19.6151	19.4474	716.969	-0	-500
2.16667	0.0569877	0.0569877	0.0569877	30.6927	1000	-6.52749e-07	19.5862	19.4188	16.6544	16.6544	19.5862	19.4188	16.6544	19.5862	19.4188	715.921	-0	-500
2.25	0.0569877	0.0569877	0.0569877	30.6927	1000	-6.52749e-07	19.5573	19.3904	16.6299	16.6299	19.5573	19.3904	16.6299	19.5573	19.3904	714.87	-0	-500
2.33333	0.0569877	0.0569877	0.0569877	30.6927	1000	-6.52749e-07	19.5286	19.3622	16.6055	16.6055	19.5286	19.3622	16.6055	19.5286	19.3622	713.82	-0	-500
2.41667	0.0569877	0.0569877	0.0569877	30.6927	1000	-6.52749e-07	19.5	19.3342	16.5811	16.5811	19.5	19.3342	16.5811	19.5	19.3342	712.77	-0	-500
2.5	0.0569877	0.0569877	0.0569877	30.6927	1000	-6.52749e-07	19.4715	19.3063	16.5567	16.5567	19.4715	19.3063	16.5567	19.4715	19.3063	711.722	-0	-500
2.58333	0.0569877	0.0569877	0.0569877	30.6927	1000	-6.52749e-07	19.4431	19.2785	16.5324	16.5324	19.4431	19.2785	16.5324	19.4431	19.2785	710.678	-0	-500
2.66667	0.0569877	0.0569877	0.0569877	30.6927	1000	-6.52749e-07	19.4149	19.2509	16.5082	16.5082	19.4149	19.2509	16.5082	19.4149	19.2509	709.639	-0	-500
2.75	0.0569877	0.0569877	0.0569877	30.6927	1000	-6.52749e-07	19.3868	19.2234	16.4841	16.4841	19.3868	19.2234	16.4841	19.3868	19.2234	708.603	-0	-500
2.83333	0.0569877	0.0569877	0.0569877	30.6927	1000	-6.52749e-07	19.3588	19.1961	16.4601	16.4601	19.3588	19.1961	16.4601	19.3588	19.1961	707.571	-0	-500
2.91667	0.0569877	0.0569877	0.0569877	30.6927	1000	-6.52749e-07	19.331	19.1689	16.4363	16.4363	19.331	19.1689	16.4363	19.331	19.1689	706.545	-0	-500
3	0.0569877	0.0569877	0.0569877	30.6927	1000	-6.52749e-07	19.3032	19.1418	16.4125	16.4125	19.3032	19.1418	16.4125	19.3032	19.1418	705.525	-0	-500
3.08333	0.0569877	0.0569877	0.0569877	30.6927	1000	-6.52749e-07	19.2756	19.1149	16.3888	16.3888	19.2756	19.1149	16.3888	19.2756	19.1149	704.507	-0	-500
3.16667	0.0569877	0.0569877	0.0569877	30.6927	1000	-6.52749e-07	19.2481	19.0881	16.3653	16.3653	19.2481	19.0881	16.3653	19.2481	19.0881	703.495	-0	-500
3.25	0.0569877	0.0569877	0.0569877	30.6927	1000	-6.52749e-07	19.2208	19.0615	16.3418	16.3418	19.2208	19.0615	16.3418	19.2208	19.0615	702.487	-0	-500
3.33333	0.0569877	0.0569877	0.0569877	30.6927	1000	-6.52749e-07	19.1935	19.035	16.3185	16.3185	19.1935	19.035	16.3185	19.1935	19.035	701.484	-0	-500
3.41667	0.0569877	0.0569877	0.0569877	30.6927	1000	-6.52749e-07	19.1664	19.0086	16.2953	16.2953	19.1664	19.0086	16.2953	19.1664	19.0086	700.486	-0	-500
3.5	0.0569877	0.0569877	0.0569877	30.6927	1000	-6.52749e-07	19.1395	18.9823	16.2722	16.2722	19.1395	18.9823	16.2722	19.1395	18.9823	699.493	-0	-500
3.58333	0.0569877	0.0569877	0.0569877	30.6927	1000	-6.52749e-07	19.1126	18.9562	16.2492	16.2492	19.1126	18.9562	16.2492	19.1126	18.9562	698.504	-0	-500
3.66667	0.0569877	0.0569877	0.0569877	30.6927	1000	-6.52749e-07	19.0859	18.9302	16.2263	16.2263	19.0859	18.9302	16.2263	19.0859	18.9302	697.519	-0	-500
3.75	0.0569877	0.0569877	0.0569877	30.6927	1000	-6.52749e-07	19.0593	18.9044	16.2035	16.2035	19.0593	18.9044	16.2035	19.0593	18.9044	696.539	-0	-500
3.83333	0.0569877	0.0569877	0.0569877	30.6927	1000	-6.52749e-07	19.0328	18.8786	16.1808	16.1808	19.0328	18.8786	16.1808	19.0328	18.8786	695.563	-0	-500
3.91667	0.0569877	0.0569877	0.0569877	30.6927	1000	-6.52749e-07	19.0065	18.853	16.1582	16.1582	19.0065	18.853	16.1582	19.0065	18.853	694.593	-0	-500
4	0.0569877	0.0569877	0.0569877	30.6927	1000	-6.52749e-07	18.9803	18.8275	16.1357	16.1357	18.9803	18.8275	16.1357	18.9803	18.8275	693.626	-0	-500
4.08333	0.0569877	0.0569877	0.0569877	30.6927	1000	-6.52749e-07	18.9542	18.8022	16.1134	16.1134	18.9542	18.8022	16.1134	18.9542	18.8022	692.665	-0	-500
4.16667	0.0569877	0.0569877	0.0569877	30.6927	1000	-6.52749e-07	18.9282	18.777	16.0911	16.0911	18.9282	18.777	16.0911	18.9282	18.777	691.708	-0	-500
4.25	0.0569877	0.0569877	0.0569877	30.6927	1000	-6.52749e-07	18.9024	18.7519	16.0689	16.0689	18.9024	18.7519	16.0689	18.9024	18.7519	690.756	-0	-500
4.33333	0.0569877	0.0569877	0.0569877	30.6927	1000	-6.52749e-07	18.8767	18.7269	16.0469	16.0469	18.8767	18.7269	16.0469	18.8767	18.7269	689.808	-0	-500
4.41667	0.0569877	0.0569877	0.0569877	30.6927	1000	-6.52749e-07	18.8511	18.7021	16.025	16.025	18.8511	18.7021	16.025	18.8511	18.7021	688.865	-0	-500
4.5	0.0569877	0.0569877	0.0569877	30.6927	1000	-6.52749e-07	18.8256	18.6774	16.0031	16.0031	18.8256	18.6774	16.0031	18.8256	18.6774	687.926	-0	-500
4.58333	0.0569877	0.0569877	0.0569877	30.6927	1000	-6.52749e-07	18.8003	18.6528	15.9814	15.9814	18.8003	18.6528	15.9814	18.8003	18.6528	686.992	-0	-500
4.66667	0.0569877	0.0569877	0.0569877	30.6927	1000	-6.52749e-07	18.775	18.6283	15.9598	15.9598	18.775	18.6283	15.9598	18.775	18.6283	686.062	-0	-500
4.75	0.0569877	0.0569877	0.0569877	30.6927	1000	-6.52749e-07	18.75	18.6039	15.9382	15.9382	18.75	18.6039	15.9382	18.75	18.6039	685.137	-0	-500
4.83333	0.0569877	0.0569877	0.0569877	30.6927	1000	-6.52749e-07	18.725	18.5797	15.9168	15.9168	18.725	18.5797	15.9168	18.725	18.5797	684.216	-0	-500
4.91667	0.0569877	0.0569877	0.0569877	30.6927	1000	-6.52749e-07	18.7002	18.5555	15.8955	15.8955	18.7002	18.5555	15.8955	18.7002	18.5555	683.3	-0	-500
5	0.0569877	0.0569877	0.0569877	30.6927	1000	-6.52749e-07	18.6754	18.5315	15.8743	15.8743	18.6754	18.5315	15.8743	18.6754	18.5315	682.389	-0	-500
5.08333	0.0569877	0.0569877	0.0569877	30.6927	1000	-6.52749e-07	18.6509	18.5077	15.8532	15.8532	18.6509	18.5077	15.8532	18.6509	18.5077	681.482	-0	-500
5.16667	0.0569877	0.0569877	0.0569877	30.6927	1000	-6.52749e-07	18.6264	18.4839	15.8322	15.8322	18.6264	18.4839	15.8322	18.6264	18.4839	680.58	-0	-500
5.25	0.0569877	0.0569877	0.0569877	30.6927	1000	-6.52749e-07	18.6021	18.4603	15.8113	15.8113	18.6021	18.4603	15.8113	18.6021	18.4603	679.682	-0	-500
5.33333	0.0569877	0.0569877	0.0569877	30.6927	1000	-6.52749e-07	18.5778	18.4368	15.7906	15.7906	18.5778	18.4368	15.7906	18.5778	18.4368	678.789	-0	-500
5.41667	0.0569877	0.0569877	0.0569877	30.6927	1000	-6.52749e-07	18.5537	18.4134	15.7699	15.7699	18.5537	18.4134	15.7699	18.5537	18.4134	677.9	-0	-500
5.5	0.0569877	0.0569877	0.0569877	30.6927	1000	-6.52749e-07	18.5297	18.3901	15.7493	15.7493	18.5297	18.3901	15.7493	18.5297	18.3901	677.015	-0	-500
5.58333	0.0569877	0.0569877	0.0569877	30.6927	1000	-6.52749e-07	18.5059	18.367	15.7288	15.7288	18.5059	18.367	15.7288	18.5059	18.367	676.134	-0	-500
5.66667	0.0569877	0.0569877	0.0569877	30.6927	1000	-6.52749e-07	18.4821	18.3439	15.7084	15.7084	18.4821	18.3439	15.7084	18.4821	18.3439	675.258	-0	-500
5.75	0.0569877	0.0569877	0.0569877	30.6927	1000	-6.52749e-07	18.4585	18.3209	15.6881	15.6881	18.4585	18.3209	15.6881	18.4585	18.3209	674.386	-0	-500
5.83333	0.0569877	0.0569877	0.0569877	30.6927	1000	-6.52749e-07	18.435	18.2981	15.668	15.668	18.435	18.2981	15.668	18.435	18.2981	673.518	-0	-500
5.91667	0.0569877	0.0569877	0.0569877	30.6927	1000	-6.52749e-07	18.4116	18.2754	15.6479	15.6479	18.4116	18.2754	15.6479	18.4116	18.2754	672.655	-0	-500
6	0.0569877	0.0569877	0.0569877	30.6927	1000	-6.52749e-07	18.3883	18.2528	15.6279	15.6279	18.3883	18.2528	15.6279	18.3883	18.2528	671.797	-0	-500
6.08333	0.0569877	0.0569877	0.0569877	30.6927	1000	-6.52749e-07	18.3651	18.2303	15.608	15.608	18.3651	18.2303	15.608	18.3651	18.2303	670.943	-0	-500
6.16667	0.0569877	0.0569877	0.0569877	30.6927	1000	-6.52749e-07	18.3421	18.208	15.5883	15.5883	18.3421	18.208	15.5883	18.3421	18.208	670.093	-0	-500
6.25	0.0569877	0.0569877	0.0569877	30.6927	1000	-6.52749e-07	18.3192	18.1857	15.5686	15.5686	18.3192	18.1857	15.5686	18.3192	18.1857	669.248	-0	-500
6.33333	0.0569877	0.0569877	0.0569877	30.6927	1000	-6.52749e-07	18.2964	18.1636	15.549	15.549	18.2964	18.1636	15.549	18.2964	18.1636	668.407	-0	-500
6.41667	0.0569877	0.0569877	0.0569877	30.6927	1000	-6.52749e-07	18.2737	18.1415	15.5296	15.5296	18.2737	18.1415	15.5296	18.2737	18.1415	667.569	-0	-500
6.5	0.0569877	0.0569877	0.0569877	30.6927	1000	-6.52749e-07	18.2511	18.1196	15.5102	15.5102	18.2511	18.1196	15.5102	18.2511	18.1196	666.736	-0	-500
6.58333	0.0569877	0.0569877	0.0569877	30.6927	1000	-6.52749e-07	18.2286	18.0978	15.4909	15.4909	18.2286	18.0978	15.4909	18.2286	18.0978	665.906	-0	-500
6.66667	0.0569877	0.0569877	0.0569877	30.6927	1000	-6.52749e-07	18.2062	18.076	15.4717	15.4717	18.2062	18.076	15.4717	18.2062	18.076	665.081	-0	-500
6.75	0.0569877	0.0569877	0.0569877	30.6927	1000	-6.52749e-07	18.1839	18.0544	15.4526	15.4526	18.1839	18.0544	15.4526	18.1839	18.0544	664.26	-0	-500
6.83333	0.0569877	0.0569877	0.0569877	30.6927	1000	-6.52749e-07	18.1618	18.0329	15.4336	15.4336	18.1618	18.0329	15.4336	18.1618	18.0329	663.442	-0	-500
6.91667	0.0569877	0.0569877	0.0569877	30.6927	1000	-6.52749e-07	18.1397	18.0115	15.4147	15.4147	18.1397	18.0115	15.4147	18.1397	18.0115	662.63	-0	-500
7	0.0569877	0.0569877	0.0569877	30.6927	1000	-6.52749e-07	18.1178	17.9902	15.3958	15.3958	18.1178	17.9902	15.3958	18.1178	17.9902	661.821	-0	-500
7.08333	0.0569877	0.0569877	0.0569877	30.6927	1000	-6.52749e-07	18.096	17.9691	15.3771	15.3771	18.096	17.9691	15.3771	18.096	17.9691	661.016	-0	-500
7.16667	0.0569877	0.0569877	0.0569877	30.6927	1000	-6.52749e-07	18.0743	17.948	15.3585	15.3585	18.0743	17.948	15.3585	18.0743	17.948	660.216	-0	-500
7.25	0.0569877	0.0569877	0.0569877	30.6927	1000	-6.52749e-07	18.0527	17.927	15.34	15.34	18.0527	17.927	15.34	18.0527	17.927	659.42	-0	-500
7.33333	0.0569877	0.0569877	0.0569877	30.6927	1000	-6.52749e-07	18.0313	17.9062	15.3216	15.3216	18.0313	17.9062	15.3216	18.0313	17.9062	658.628	-0	-500
7.41667	0.0569877	0.0569877	0.0569877	30.6927	1000	-6.52749e-07	18.0099	17.8854	15.3032	15.3032	18.0099	17.8854	15.3032	18.0099	17.8854	657.839	-0	-500
7.5	0.0569877	0.0569877	0.0569877	30.6927	1000	-6.52749e-07	17.9886	17.8648	15.285	15.285	17.9886	17.8648	15.285	17.9886	17.8648	657.054	-0	-500
7.58333	0.0569877	0.0569877	0.0569877	30.6927	1000	-6.52749e-07	17.9674	17.8442	15.2668	15.2668	17.9674	17.8442	15.2668	17.9674	17.8442	656.273	-0	-500
7.66667	0.0569877	0.0569877	0.0569877	30.6927	1000	-6.52749e-07	17.9463	17.8237	15.2487	15.2487	17.9463	17.8237	15.2487	17.9463	17.8237	655.495	-0	-500
7.75	0.0569877	0.0569877	0.0569877	30.6927	1000	-6.52749e-07	17.9254	17.8034	15.2307	15.2307	17.9254	17.8034	15.2307	17.9254	17.8034	654.722	-0	-500
7.83333	0.0569877	0.0569877	0.0569877	30.6927	1000	-6.52749e-07	17.9045	17.7831	15.2128	15.2128	17.9045	17.7831	15.2128	17.9045	17.7831	653.952	-0	-500
7.91667	0.0569877	0.0569877	0.0569877	30.6927	1000	-6.52749e-07	17.8837	17.763	15.195	15.195	17.8837	17.763	15.195	17.8837	17.763	653.187	-0	-500
8	0.0569877	0.0569877	0.0569877	30.6927	1000	-6.52749e-07	17.8631	17.7429	15.1773	15.1773	17.8631	17.7429	15.1773	17.8631	17.7429	652.425	-0	-500
8.08333	0.0569877	0.0569877	0.0569877	30.6927	1000	-6.52749e-07	17.8425	17.723	15.1596	15.1596	17.8425	17.723	15.1596	17.8425	17.723	651.667	-0	-500
8.16667	0.0569877	0.0569877	0.0569877	30.6927	1000	-6.52749e-07	17.8221	17.7031	15.1421	15.1421	17.8221	17.7031	15.1421	17.8221	17.7031	650.914	-0	-500
8.25	0.0569877	0.0569877	0.0569877	30.6927	1000	-6.52749e-07	17.8018	17.6834	15.1247	15.1247	17.8018	17.6834	15.1247	17.8018	17.6834	650.164	-0	-500
8.33333	0.0569877	0.0569877	0.0569877	30.6927	1000	-6.52749e-07	17.7815	17.6638	15.1073	15.1073	17.7815	17.6638	15.1073	17.7815	17.6638	649.418	-0	-500
8.41667	0.0569877	0.0569877	0.0569877	30.6927	1000	-6.52749e-07	17.7614	17.6442	15.09	15.09	17.7614	17.6442	15.09	17.7614	17.6442	648.675	-0	-500
8.5	0.0569877	0.0569877	0.0569877	30.6927	1000	-6.52749e-07	17.7414	17.6247	15.0728	15.0728	17.7414	17.6247	15.0728	17.7414	17.6247	647.936	-0	-500
8.58333	0.0569877	0.0569877	0.0569877	30.6927	1000	-6.52749e-07	17.7214	17.6054	15.0557	15.0557	17.7214	17.6054	15.0557	17.7214	17.6054	647.2	-0	-500
8.66667	0.0569877	0.0569877	0.0569877	30.6927	1000	-6.52749e-07	17.7016	17.5861	15.0387	15.0387	17.7016	17.5861	15.0387	17.7016	17.5861	646.467	-0	-500
8.75	0.0569877	0.0569877	0.0569877	30.6927	1000	-6.52749e-07	17.6818	17.5669	15.0217	15.0217	17.6818	17.5669	15.0217	17.6818	17.5669	645.739	-0	-500
8.83333	0.0569877	0.0569877	0.0569877	30.6927	1000	-6.52749e-07	17.6621	17.5478	15.0049	15.0049	17.6621	17.5478	15.0049	17.6621	17.5478	645.014	-0	-500
8.91667	0.0569877	0.0569877	0.0569877	30.6927	1000	-6.52749e-07	17.6426	17.5289	14.9881	14.9881	17.6426	17.5289	14.9881	17.6426	17.5289	644.293	-0	-500
9	0.0569877	0.0569877	0.0569877	30.6927	1000	-6.52749e-07	17.6231	17.51	14.9714	14.9714	17.6231	17.51	14.9714	17.6231	17.51	643.575	-0	-500
9.08333	0.0569877	0.0569877	0.0569877	30.6927	1000	-6.52749e-07	17.6038	17.4912	14.9548	14.9548	17.6038	17.4912	14.9548	17.6038	17.4912	642.862	-0	-500
9.16667	0.0569877	0.0569877	0.0569877	30.6927	1000	-6.52749e-07	17.5845	17.4725	14.9383	14.9383	17.5845	17.4725	14.9383	17.5845	17.4725	642.152	-0	-500
9.25	0.0569877	0.0569877	0.0569877	30.6927	1000	-6.52749e-07	17.5654	17.4539	14.9218	14.9218	17.5654	17.4539	14.9218	17.5654	17.4539	641.445	-0	-500
9.33333	0.0569877	0.0569877	0.0569877	30.6927	1000	-6.52749e-07	17.5463	17.4354	14.9055	14.9055	17.5463	17.4354	14.9055	17.5463	17.4354	640.743	-0	-500
9.41667	0.0569877	0.0569877	0.0569877	30.6927	1000	-6.52749e-07	17.5274	17.417	14.8892	14.8892	17.5274	17.417	14.8892	17.5274	17.417	640.043	-0	-500
9.5	0.0569877	0.0569877	0.0569877	30.6927	1000	-6.52749e-07	17.5085	17.3986	14.873	14.873	17.5085	17.3986	14.873	17.5085	17.3986	639.347	-0	-500
9.58333	0.0569877	0.0569877	0.0569877	30.6927	1000	-6.52749e-07	17.4897	17.3804	14.8569	14.8569	17.4897	17.3804	14.8569	17.4897	17.3804	638.653	-0	-500
9.66667	0.0569877	0.0569877	0.0569877	30.6927	1000	-6.52749e-07	17.471	17.3622	14.8409	14.8409	17.471	17.3622	14.8409	17.471	17.3622	637.964	-0	-500
9.75	0.0569877	0.0569877	0.0569877	30.6927	1000	-6.52749e-07	17.4524	17.3442	14.8249	14.8249	17.4524	17.3442	14.8249	17.4524	17.3442	637.277	-0	-500
9.83333	0.0569877	0.0569877	0.0569877	30.6927	1000	-6.52749e-07	17.4339	17.3262	14.809	14.809	17.4339	17.3262	14.809	17.4339	17.3262	636.595	-0	-500
9.91667	0.0569877	0.0569877	0.0569877	30.6927	1000	-6.52749e-07	17.4155	17.3083	14.7932	14.7932	17.4155	17.3083	14.7932	17.4155	17.3083	635.915	-0	-500
10	0.0569877	0.0569877	0.0569877	30.6927	1000	-6.52749e-07	17.3971	17.2905	14.7775	14.7775	17.3971	17.2905	14.7775	17.3971	17.2905	635.24	-0	-500
10.0833	0.0569877	0.0569877	0.0569877	30.6927	1000	-6.52749e-07	17.3789	17.2728	14.7618	14.7618	17.3789	17.2728	14.7618	17.3789	17.2728	634.567	-0	-500
10.1667	0.0569877	0.0569877	0.0569877	30.6927	1000	-6.52749e-07	17.3608	17.2552	14.7463	14.7463	17.3608	17.2552	14.7463	17.3608	17.2552	633.899	-0	-500
10.25	0.0569877	0.0569877	0.0569877	30.6927	1000	-6.52749e-07	17.3427	17.2377	14.7308	14.7308	17.3427	17.2377	14.7308	17.3427	17.2377	633.233	-0	-500
10.3333	0.0569877	0.0569877	0.0569877	30.6927	1000	-6.52749e-07	17.3248	17.2203	14.7154	14.7154	17.3248	17.2203	14.7154	17.3248	17.2203	632.572	-0	-500
10.4167	0.0569877	0.0569877	0.0569877	30.6927	1000	-6.52749e-07	17.3069	17.2029	14.7001	14.7001	17.3069	17.2029	14.7001	17.3069	17.2029	631.913	-0	-500
10.5	0.0569877	0.0569877	0.0569877	30.6927	1000	-6.52749e-07	17.2891	17.1857	14.6848	14.6848	17.2891	17.1857	14.6848	17.2891	17.1857	631.256	-0	-500
10.5833	0.0569877	0.0569877	0.0569877	30.6927	1000	-6.52749e-07	17.2714	17.1685	14.6696	14.6696	17.2714	17.1685	14.6696	17.2714	17.1685	630.603	-0	-500
10.6667	0.0569877	0.0569877	0.0569877	30.6927	1000	-6.52749e-07	17.2538	17.1514	14.6545	14.6545	17.2538	17.1514	14.6545	17.2538	17.1514	629.954	-0	-500
10.75	0.0569877	0.0569877	0.0569877	30.6927	1000	-6.52749e-07	17.2363	17.1344	14.6395	14.6395	17.2363	17.1344	14.6395	17.2363	17.1344	629.307	-0	-500
10.8333	0.0569877	0.0569877	0.0569877	30.6927	1000	-6.52749e-07	17.2189	17.1174	14.6245	14.6245	17.2189	17.1174	14.6245	17.2189	17.1174	628.664	-0	-500
10.9167	0.0569877	0.0569877	0.0569877	30.6927	1000	-6.52749e-07	17.2015	17.1006	14.6096	14.6096	17.2015	17.1006	14.6096	17.2015	17.1006	628.024	-0	-500
11	0.0569877	0.0569877	0.0569877	30.6927	1000	-6.52749e-07	17.1843	17.0838	14.5948	14.5948	17.1843	17.0838	14.5948	17.1843	17.0838	627.388	-0	-500
11.0833	0.0569877	0.0569877	0.0569877	30.6927	1000	-6.52749e-07	17.1671	17.0672	14.5801	14.5801	17.1671	17.0672	14.5801	17.1671	17.0672	626.755	-0	-500
11.1667	0.0569877	0.0569877	0.0569877	30.6927	1000	-6.52749e-07	17.15	17.0506	14.5654	14.5654	17.15	17.0506	14.5654	17.15	17.0506	626.125	-0	-500
11.25	0.0569877	0.0569877	0.0569877	30.6927	1000	-6.52749e-07	17.133	17.0341	14.5509	14.5509	17.133	17.0341	14.5509	17.133	17.0341	625.498	-0	-500
11.3333	0.0569877	0.0569877	0.0569877	30.6927	1000	-6.52749e-07	17.1161	17.0177	14.5364	14.5364	17.1161	17.0177	14.5364	17.1161	17.0177	624.875	-0	-500
11.4167	0.0569877	0.0569877	0.0569877	30.6927	1000	-6.52749e-07	17.0993	17.0013	14.5219	14.5219	17.0993	17.0013	14.5219	17.0993	17.0013	624.254	-0	-500
11.5	0.0569877	0.0569877	0.0569877	30.6927	1000	-6.52749e-07	17.0825	16.9851	14.5075	14.5075	17.0825	16.9851	14.5075	17.0825	16.9851	623.636	-0	-500
11.5833	0.0569877	0.0569877	0.0569877	30.6927	1000	-6.52749e-07	17.0659	16.9689	14.4932	14.4932	17.0659	16.9689	14.4932	17.0659	16.9689	623.021	-0	-500
11.6667	0.0569877	0.0569877	0.0569877	30.6927	1000	-6.52749e-07	17.0493	16.9528	14.479	14.479	17.0493	16.9528	14.479	17.0493	16.9528	622.409	-0	-500
11.75	0.0569877	0.0569877	0.0569877	30.6927	1000	-6.52749e-07	17.0328	16.9367	14.4648	14.4648	17.0328	16.9367	14.4648	17.0328	16.9367	621.8	-0	-500
11.8333	0.0569877	0.0569877	0.0569877	30.6927	1000	-6.52749e-07	17.0163	16.9208	14.4507	14.4507	17.0163	16.9208	14.4507	17.0163	16.9208	621.194	-0	-500
11.9167	0.0569877	0.0569877	0.0569877	30.6927	1000	-6.52749e-07	17	16.9049	14.4367	14.4367	17	16.9049	14.4367	17	16.9049	620.592	-0	-500
12	0.0569877	0.0569877	0.0569877	30.6927	1000	-6.52749e-07	16.9837	16.8891	14.4228	14.4228	16.9837	16.8891	14.4228	16.9837	16.8891	619.992	-0	-500
12.0833	0.0569877	0.0569877	0.0569877	30.6927	1000	-6.52749e-07	16.9676	16.8734	14.4089	14.4089	16.9676	16.8734	14.4089	16.9676	16.8734	619.395	-0	-500
12.1667	0.0569877	0.0569877	0.0569877	30.6927	1000	-6.52749e-07	16.9515	16.8578	14.3951	14.3951	16.9515	16.8578	14.3951	16.9515	16.8578	618.802	-0	-500
12.25	0.0569877	0.0569877	0.0569877	30.6927	1000	-6.52749e-07	16.9355	16.8423	14.3814	14.3814	16.9355	16.8423	14.3814	16.9355	16.8423	618.212	-0	-500
12.3333	0.0569877	0.0569877	0.0569877	30.6927	1000	-6.52749e-07	16.9195	16.8268	14.3677	14.3677	16.9195	16.8268	14.3677	16.9195	16.8268	617.625	-0	-500
12.4167	0.0569877	0.0569877	0.0569877	30.6927	1000	-6.52749e-07	16.9037	16.8114	14.3541	14.3541	16.9037	16.8114	14.3541	16.9037	16.8114	617.04	-0	-500
12.5	0.0569877	0.0569877	0.0569877	30.6927	1000	-6.52749e-07	16.8879	16.7961	14.3406	14.3406	16.8879	16.7961	14.3406	16.8879	16.7961	616.458	-0	-500
12.5833	0.0569877	0.0569877	0.0569877	30.6927	1000	-6.52749e-07	16.8722	16.7809	14.3271	14.3271	16.8722	16.7809	14.3271	16.8722	16.7809	615.878	-0	-500
12.6667	0.0569877	0.0569877	0.0569877	30.6927	1000	-6.52749e-07	16.8566	16.7657	14.3137	14.3137	16.8566	16.7657	14.3137	16.8566	16.7657	615.302	-0	-500
12.75	0.0569877	0.0569877	0.0569877	30.6927	1000	-6.52749e-07	16.841	16.7506	14.3003	14.3003	16.841	16.7506	14.3003	16.841	16.7506	614.728	-0	-500
12.8333	0.0569877	0.0569877	0.0569877	30.6927	1000	-6.52749e-07	16.8256	16.7356	14.2871	14.2871	16.8256	16.7356	14.2871	16.8256	16.7356	614.158	-0	-500
12.9167	0.0569877	0.0569877	0.0569877	30.6927	1000	-6.52749e-07	16.8102	16.7206	14.2739	14.2739	16.8102	16.7206	14.2739	16.8102	16.7206	613.59	-0	-500
13	0.0569877	0.0569877	0.0569877	30.6927	1000	-6.52749e-07	16.7949	16.7058	14.2607	14.2607	16.7949	16.7058	14.2607	16.7949	16.7058	613.025	-0	-500
13.0833	0.0569877	0.0569877	0.0569877	30.6927	1000	-6.52749e-07	16.7796	16.691	14.2476	14.2476	16.7796	16.691	14.2476	16.7796	16.691	612.464	-0	-500
13.1667	0.0569877	0.0569877	0.0569877	30.6927	1000	-6.52749e-07	16.7645	16.6762	14.2346	14.2346	16.7645	16.6762	14.2346	16.7645	16.6762	611.905	-0	-500
13.25	0.0569877	0.0569877	0.0569877	30.6927	1000	-6.52749e-07	16.7494	16.6616	14.2217	14.2217	16.7494	16.6616	14.2217	16.7494	16.6616	611.349	-0	-500
13.3333	0.0569877	0.0569877	0.0569877	30.6927	1000	-6.52749e-07	16.7344	16.6471	14.2088	14.2088	16.7344	16.6471	14.2088	16.7344	16.6471	610.796	-0	-500
13.4167	0.0569877	0.0569877	0.0569877	30.6927	1000	-6.52749e-07	16.7195	16.6326	14.196	14.196	16.7195	16.6326	14.196	16.7195	16.6326	610.245	-0	-500
13.5	0.0569877	0.0569877	0.0569877	30.6927	1000	-6.52749e-07	16.7046	16.6181	14.1833	14.1833	16.7046	16.6181	14.1833	16.7046	16.6181	609.696	-0	-500
13.5833	0.0569877	0.0569877	0.0569877	30.6927	1000	-6.52749e-07	16.6898	16.6038	14.1706	14.1706	16.6898	16.6038	14.1706	16.6898	16.6038	609.151	-0	-500
13.6667	0.0569877	0.0569877	0.0569877	30.6927	1000	-6.52749e-07	16.6751	16.5895	14.1579	14.1579	16.6751	16.5895	14.1579	16.6751	16.5895	608.608	-0	-500
13.75	0.0569877	0.0569877	0.0569877	30.6927	1000	-6.52749e-07	16.6604	16.5752	14.1454	14.1454	16.6604	16.5752	14.1454	16.6604	16.5752	608.068	-0	-500
13.8333	0.0569877	0.0569877	0.0569877	30.6927	1000	-6.52749e-07	16.6459	16.5611	14.1329	14.1329	16.6459	16.5611	14.1329	16.6459	16.5611	607.53	-0	-500
13.9167	0.0569877	0.0569877	0.0569877	30.6927	1000	-6.52749e-07	16.6314	16.547	14.1204	14.1204	16.6314	16.547	14.1204	16.6314	16.547	606.995	-0	-500
14	0.0569877	0.0569877	0.0569877	30.6927	1000	-6.52749e-07	16.6169	16.533	14.1081	14.1081	16.6169	16.533	14.1081	16.6169	16.533	606.463	-0	-500
14.0833	0.0569877	0.0569877	0.0569877	30.6927	1000	-6.52749e-07	16.6026	16.5191	14.0958	14.0958	16.6026	16.5191	14.0958	16.6026	16.5191	605.934	-0	-500
14.1667	0.0569877	0.0569877	0.0569877	30.6927	1000	-6.52749e-07	16.5883	16.5052	14.0835	14.0835	16.5883	16.5052	14.0835	16.5883	16.5052	605.408	-0	-500
14.25	0.0569877	0.0569877	0.0569877	30.6927	1000	-6.52749e-07	16.5741	16.4914	14.0713	14.0713	16.5741	16.4914	14.0713	16.5741	16.4914	604.884	-0	-500
14.3333	0.0569877	0.0569877	0.0569877	30.6927	1000	-6.52749e-07	16.56	16.4777	14.0592	14.0592	16.56	16.4777	14.0592	16.56	16.4777	604.363	-0	-500
14.4167	0.0569877	0.0569877	0.0569877	30.6927	1000	-6.52749e-07	16.5459	16.4641	14.0471	14.0471	16.5459	16.4641	14.0471	16.5459	16.4641	603.844	-0	-500
14.5	0.0569877	0.0569877	0.0569877	30.6927	1000	-6.52749e-07	16.5319	16.4505	14.0351	14.0351	16.5319	16.4505	14.0351	16.5319	16.4505	603.328	-0	-500
14.5833	0.0569877	0.0569877	0.0569877	30.6927	1000	-6.52749e-07	16.518	16.4369	14.0232	14.0232	16.518	16.4369	14.0232	16.518	16.4369	602.814	-0	-500
14.6667	0.0569877	0.0569877	0.0569877	30.6927	1000	-6.52749e-07	16.5041	16.4235	14.0113	14.0113	16.5041	16.4235	14.0113	16.5041	16.4235	602.302	-0	-500
14.75	0.0569877	0.0569877	0.0569877	30.6927	1000	-6.52749e-07	16.4903	16.4101	13.9994	13.9994	16.4903	16.4101	13.9994	16.4903	16.4101	601.793	-0	-500
14.8333	0.0569877	0.0569877	0.0569877	30.6927	1000	-6.52749e-07	16.4766	16.3967	13.9876	13.9876	16.4766	16.3967	13.9876	16.4766	16.3967	601.287	-0	-500
14.9167	0.0569877	0.0569877	0.0569877	30.6927	1000	-6.52749e-07	16.4629	16.3835	13.9759	13.9759	16.4629	16.3835	13.9759	16.4629	16.3835	600.783	-0	-500
15	0.0569877	0.0569877	0.0569877	30.6927	1000	-6.52749e-07	16.4493	16.3703	13.9643	13.9643	16.4493	16.3703	13.9643	16.4493	16.3703	600.282	-0	-500
15.0833	0.0569877	0.0569877	0.0569877	30.6927	1000	-6.52749e-07	16.4358	16.3572	13.9527	13.9527	16.4358	16.3572	13.9527	16.4358	16.3572	599.784	-0	-500
15.1667	0.0569877	0.0569877	0.0569877	30.6927	1000	-6.52749e-07	16.4224	16.3441	13.9411	13.9411	16.4224	16.3441	13.9411	16.4224	16.3441	599.288	-0	-500
15.25	0.0569877	0.0569877	0.0569877	30.6927	1000	-6.52749e-07	16.409	16.3311	13.9297	13.9297	16.409	16.3311	13.9297	16.409	16.3311	598.795	-0	-500
15.3333	0.0569877	0.0569877	0.0569877	30.6927	1000	-6.52749e-07	16.3957	16.3182	13.9182	13.9182	16.3957	16.3182	13.9182	16.3957	16.3182	598.304	-0	-500
15.4167	0.0569877	0.0569877	0.0569877	30.6927	1000	-6.52749e-07	16.3825	16.3054	13.9069	13.9069	16.3825	16.3054	13.9069	16.3825	16.3054	597.815	-0	-500
15.5	0.0569877	0.0569877	0.0569877	30.6927	1000	-6.52749e-07	16.3693	16.2925	13.8956	13.8956	16.3693	16.2925	13.8956	16.3693	16.2925	597.329	-0	-500
15.5833	0.0569877	0.0569877	0.0569877	30.6927	1000	-6.52749e-07	16.3561	16.2798	13.8843	13.8843	16.3561	16.2798	13.8843	16.3561	16.2798	596.844	-0	-500
15.6667	0.0569877	0.0569877	0.0569877	30.6927	1000	-6.52749e-07	16.3431	16.2671	13.8731	13.8731	16.3431	16.2671	13.8731	16.3431	16.2671	596.363	-0	-500
15.75	0.0569877	0.0569877	0.0569877	30.6927	1000	-6.52749e-07	16.3301	16.2545	13.8619	13.8619	16.3301	16.2545	13.8619	16.3301	16.2545	595.883	-0	-500
15.8333	0.0569877	0.0569877	0.0569877	30.6927	1000	-6.52749e-07	16.3172	16.2419	13.8508	13.8508	16.3172	16.2419	13.8508	16.3172	16.2419	595.406	-0	-500
15.9167	0.0569877	0.0569877	0.0569877	30.6927	1000	-6.52749e-07	16.3043	16.2295	13.8398	13.8398	16.3043	16.2295	13.8398	16.3043	16.2295	594.932	-0	-500
16	0.0569877	0.0569877	0.0569877	30.6927	1000	-6.52749e-07	16.2915	16.217	13.8288	13.8288	16.2915	16.217	13.8288	16.2915	16.217	594.46	-0	-500
16.0833	0.0569877	0.0569877	0.0569877	30.6927	1000	-6.52749e-07	16.2788	16.2047	13.8179	13.8179	16.2788	16.2047	13.8179	16.2788	16.2047	593.99	-0	-500
16.1667	0.0569877	0.0569877	0.0569877	30.6927	1000	-6.52749e-07	16.2661	16.1924	13.807	13.807	16.2661	16.1924	13.807	16.2661	16.1924	593.523	-0	-500
16.25	0.0569877	0.0569877	0.0569877	30.6927	1000	-6.52749e-07	16.2535	16.1801	13.7962	13.7962	16.2535	16.1801	13.7962	16.2535	16.1801	593.059	-0	-500
16.3333	0.0569877	0.0569877	0.0569877	30.6927	1000	-6.52749e-07	16.241	16.168	13.7855	13.7855	16.241	16.168	13.7855	16.241	16.168	592.596	-0	-500
16.4167	0.0569877	0.0569877	0.0569877	30.6927	1000	-6.52749e-07	16.2285	16.1559	13.7748	13.7748	16.2285	16.1559	13.7748	16.2285	16.1559	592.136	-0	-500
16.5	0.0569877	0.0569877	0.0569877	30.6927	1000	-6.52749e-07	16.2161	16.1438	13.7641	13.7641	16.2161	16.1438	13.7641	16.2161	16.1438	591.678	-0	-500
16.5833	0.0569877	0.0569877	0.0569877	30.6927	1000	-6.52749e-07	16.2037	16.1318	13.7535	13.7535	16.2037	16.1318	13.7535	16.2037	16.1318	591.222	-0	-500
16.6667	0.0569877	0.0569877	0.0569877	30.6927	1000	-6.52749e-07	16.1914	16.1198	13.7429	13.7429	16.1914	16.1198	13.7429	16.1914	16.1198	590.768	-0	-500
16.75	0.0569877	0.0569877	0.0569877	30.6927	1000	-6.52749e-07	16.1792	16.108	13.7324	13.7324	16.1792	16.108	13.7324	16.1792	16.108	590.317	-0	-500
16.8333	0.0569877	0.0569877	0.0569877	30.6927	1000	-6.52749e-07	16.167	16.0961	13.722	13.722	16.167	16.0961	13.722	16.167	16.0961	589.867	-0	-500
16.9167	0.0569877	0.0569877	0.0569877	30.6927	1000	-6.52749e-07	16.1549	16.0844	13.7116	13.7116	16.1549	16.0844	13.7116	16.1549	16.0844	589.42	-0	-500
17	0.0569877	0.0569877	0.0569877	30.6927	1000	-6.52749e-07	16.1428	16.0727	13.7013	13.7013	16.1428	16.0727	13.7013	16.1428	16.0727	588.976	-0	-500
17.0833	0.0569877	0.0569877	0.0569877	30.6927	1000	-6.52749e-07	16.1308	16.061	13.691	13.691	16.1308	16.061	13.691	16.1308	16.061	588.534	-0	-500
17.1667	0.0569877	0.0569877	0.0569877	30.6927	1000	-6.52749e-07	16.1189	16.0494	13.6807	13.6807	16.1189	16.0494	13.6807	16.1189	16.0494	588.094	-0	-500
17.25	0.0569877	0.0569877	0.0569877	30.6927	1000	-6.52749e-07	16.107	16.0379	13.6705	13.6705	16.107	16.0379	13.6705	16.107	16.0379	587.656	-0	-500
17.3333	0.0569877	0.0569877	0.0569877	30.6927	1000	-6.52749e-07	16.0952	16.0265	13.6604	13.6604	16.0952	16.0265	13.6604	16.0952	16.0265	587.22	-0	-500
17.4167	0.0569877	0.0569877	0.0569877	30.6927	1000	-6.52749e-07	16.0835	16.015	13.6503	13.6503	16.0835	16.015	13.6503	16.0835	16.015	586.787	-0	-500
17.5	0.0569877	0.0569877	0.0569877	30.6927	1000	-6.52749e-07	16.0717	16.0037	13.6403	13.6403	16.0717	16.0037	13.6403	16.0717	16.0037	586.355	-0	-500
17.5833	0.0569877	0.0569877	0.0569877	30.6927	1000	-6.52749e-07	16.0601	15.9924	13.6303	13.6303	16.0601	15.9924	13.6303	16.0601	15.9924	585.926	-0	-500
17.6667	0.0569877	0.0569877	0.0569877	30.6927	1000	-6.52749e-07	16.0485	15.9811	13.6204	13.6204	16.0485	15.9811	13.6204	16.0485	15.9811	585.498	-0	-500
17.75	0.0569877	0.0569877	0.0569877	30.6927	1000	-6.52749e-07	16.037	15.9699	13.6105	13.6105	16.037	15.9699	13.6105	16.037	15.9699	585.073	-0	-500
17.8333	0.0569877	0.0569877	0.0569877	30.6927	1000	-6.52749e-07	16.0255	15.9588	13.6006	13.6006	16.0255	15.9588	13.6006	16.0255	15.9588	584.65	-0	-500
17.9167	0.0569877	0.0569877	0.0569877	30.6927	1000	-6.52749e-07	16.0141	15.9477	13.5908	13.5908	16.0141	15.9477	13.5908	16.0141	15.9477	584.229	-0	-500
18	0.0569877	0.0569877	0.0569877	30.6927	1000	-6.52749e-07	16.0027	15.9367	13.5811	13.5811	16.0027	15.9367	13.5811	16.0027	15.9367	583.81	-0	-500
18.0833	0.0569877	0.0569877	0.0569877	30.6927	1000	-6.52749e-07	15.9914	15.9257	13.5714	13.5714	15.9914	15.9257	13.5714	15.9914	15.9257	583.393	-0	-500
18.1667	0.0569877	0.0569877	0.0569877	30.6927	1000	-6.52749e-07	15.9802	15.9148	13.5618	13.5618	15.9802	15.9148	13.5618	15.9802	15.9148	582.979	-0	-500
18.25	0.0569877	0.0569877	0.0569877	30.6927	1000	-6.52749e-07	15.969	15.9039	13.5522	13.5522	15.969	15.9039	13.5522	15.969	15.9039	582.567	-0	-500
18.3333	0.0569877	0.0569877	0.0569877	30.6927	1000	-6.52749e-07	15.9579	15.8931	13.5426	13.5426	15.9579	15.8931	13.5426	15.9579	15.8931	582.157	-0	-500
18.4167	0.0569877	0.0569877	0.0569877	30.6927	1000	-6.52749e-07	15.9468	15.8824	13.5331	13.5331	15.9468	15.8824	13.5331	15.9468	15.8824	581.748	-0	-500
18.5	0.0569877	0.0569877	0.0569877	30.6927	1000	-6.52749e-07	15.9358	15.8717	13.5237	13.5237	15.9358	15.8717	13.5237	15.9358	15.8717	581.342	-0	-500
18.5833	0.0569877	0.0569877	0.0569877	30.6927	1000	-6.52749e-07	15.9248	15.861	13.5142	13.5142	15.9248	15.861	13.5142	15.9248	15.861	580.937	-0	-500
18.6667	0.0569877	0.0569877	0.0569877	30.6927	1000	-6.52749e-07	15.9139	15.8504	13.5049	13.5049	15.9139	15.8504	13.5049	15.9139	15.8504	580.534	-0	-500
18.75	0.0569877	0.0569877	0.0569877	30.6927	1000	-6.52749e-07	15.9031	15.8399	13.4956	13.4956	15.9031	15.8399	13.4956	15.9031	15.8399	580.134	-0	-500
18.8333	0.0569877	0.0569877	0.0569877	30.6927	1000	-6.52749e-07	15.8923	15.8294	13.4863	13.4863	15.8923	15.8294	13.4863	15.8923	15.8294	579.735	-0	-500
18.9167	0.0569877	0.0569877	0.0569877	30.6927	1000	-6.52749e-07	15.8815	15.819	13.4771	13.4771	15.8815	15.819	13.4771	15.8815	15.819	579.339	-0	-500
19	0.0569877	0.0569877	0.0569877	30.6927	1000	-6.52749e-07	15.8708	15.8086	13.4679	13.4679	15.8708	15.8086	13.4679	15.8708	15.8086	578.944	-0	-500
19.0833	0.0569877	0.0569877	0.0569877	30.6927	1000	-6.52749e-07	15.8602	15.7983	13.4588	13.4588	15.8602	15.7983	13.4588	15.8602	15.7983	578.552	-0	-500
19.1667	0.0569877	0.0569877	0.0569877	30.6927	1000	-6.52749e-07	15.8496	15.788	13.4497	13.4497	15.8496	15.788	13.4497	15.8496	15.788	578.161	-0	-500
19.25	0.0569877	0.0569877	0.0569877	30.6927	1000	-6.52749e-07	15.8391	15.7778	13.4406	13.4406	15.8391	15.7778	13.4406	15.8391	15.7778	577.773	-0	-500
19.3333	0.0569877	0.0569877	0.0569877	30.6927	1000	-6.52749e-07	15.8286	15.7676	13.4317	13.4317	15.8286	15.7676	13.4317	15.8286	15.7676	577.387	-0	-500
19.4167	0.0569877	0.0569877	0.0569877	30.6927	1000	-6.52749e-07	15.8182	15.7575	13.4227	13.4227	15.8182	15.7575	13.4227	15.8182	15.7575	577.002	-0	-500
19.5	0.0569877	0.0569877	0.0569877	30.6927	1000	-6.52749e-07	15.8078	15.7474	13.4138	13.4138	15.8078	15.7474	13.4138	15.8078	15.7474	576.619	-0	-500
19.5833	0.0569877	0.0569877	0.0569877	30.6927	1000	-6.52749e-07	15.7974	15.7373	13.4049	13.4049	15.7974	15.7373	13.4049	15.7974	15.7373	576.238	-0	-500
19.6667	0.0569877	0.0569877	0.0569877	30.6927	1000	-6.52749e-07	15.7872	15.7274	13.3961	13.3961	15.7872	15.7274	13.3961	15.7872	15.7274	575.859	-0	-500
19.75	0.0569877	0.0569877	0.0569877	30.6927	1000	-6.52749e-07	15.7769	15.7174	13.3873	13.3873	15.7769	15.7174	13.3873	15.7769	15.7174	575.481	-0	-500
19.8333	0.0569877	0.0569877	0.0569877	30.6927	1000	-6.52749e-07	15.7667	15.7075	13.3786	13.3786	15.7667	15.7075	13.3786	15.7667	15.7075	575.106	-0	-500
19.9167	0.0569877	0.0569877	0.0569877	30.6927	1000	-6.52749e-07	15.7566	15.6977	13.3699	13.3699	15.7566	15.6977	13.3699	15.7566	15.6977	574.732	-0	-500
20	0.0569877	0.0569877	0.0569877	30.6927	1000	-6.52749e-07	15.7465	15.6879	13.3613	13.3613	15.7465	15.6879	13.3613	15.7465	15.6879	574.361	-0	-500
20.0833	0.0569877	0.0569877	0.0569877	30.6927	1000	-6.52749e-07	15.7365	15.6782	13.3527	13.3527	15.7365	15.6782	13.3527	15.7365	15.6782	573.991	-0	-500
20.1667	0.0569877	0.0569877	0.0569877	30.6927	1000	-6.52749e-07	15.7266	15.6685	13.3441	13.3441	15.7266	15.6685	13.3441	15.7266	15.6685	573.623	-0	-500
20.25	0.0569877	0.0569877	0.0569877	30.6927	1000	-6.52749e-07	15.7166	15.6589	13.3356	13.3356	15.7166	15.6589	13.3356	15.7166	15.6589	573.258	-0	-500
20.3333	0.0569877	0.0569877	0.0569877	30.6927	1000	-6.52749e-07	15.7068	15.6493	13.3271	13.3271	15.7068	15.6493	13.3271	15.7068	15.6493	572.894	-0	-500
20.4167	0.0569877	0.0569877	0.0569877	30.6927	1000	-6.52749e-07	15.6969	15.6398	13.3187	13.3187	15.6969	15.6398	13.3187	15.6969	15.6398	572.531	-0	-500
20.5	0.0569877	0.0569877	0.0569877	30.6927	1000	-6.52749e-07	15.6872	15.6303	13.3103	13.3103	15.6872	15.6303	13.3103	15.6872	15.6303	572.171	-0	-500
20.5833	0.0569877	0.0569877	0.0569877	30.6927	1000	-6.52749e-07	15.6774	15.6208	13.302	13.302	15.6774	15.6208	13.302	15.6774	15.6208	571.812	-0	-500
20.6667	0.0569877	0.0569877	0.0569877	30.6927	1000	-6.52749e-07	15.6677	15.6114	13.2937	13.2937	15.6677	15.6114	13.2937	15.6677	15.6114	571.454	-0	-500
20.75	0.0569877	0.0569877	0.0569877	30.6927	1000	-6.52749e-07	15.6581	15.6021	13.2854	13.2854	15.6581	15.6021	13.2854	15.6581	15.6021	571.099	-0	-500
20.8333	0.0569877	0.0569877	0.0569877	30.6927	1000	-6.52749e-07	15.6485	15.5928	13.2772	13.2772	15.6485	15.5928	13.2772	15.6485	15.5928	570.745	-0	-500
20.9167	0.0569877	0.0569877	0.0569877	30.6927	1000	-6.52749e-07	15.639	15.5835	13.269	13.269	15.639	15.5835	13.269	15.639	15.5835	570.394	-0	-500
21	0.0569877	0.0569877	0.0569877	30.6927	1000	-6.52749e-07	15.6295	15.5743	13.2608	13.2608	15.6295	15.5743	13.2608	15.6295	15.5743	570.044	-0	-500
21.0833	0.0569877	0.0569877	0.0569877	30.6927	1000	-6.52749e-07	15.6201	15.5651	13.2527	13.2527	15.6201	15.5651	13.2527	15.6201	15.5651	569.695	-0	-500
21.1667	0.0569877	0.0569877	0.0569877	30.6927	1000	-6.52749e-07	15.6107	15.556	13.2447	13.2447	15.6107	15.556	13.2447	15.6107	15.556	569.349	-0	-500
21.25	0.0569877	0.0569877	0.0569877	30.6927	1000	-6.52749e-07	15.6013	15.5469	13.2367	13.2367	15.6013	15.5469	13.2367	15.6013	15.5469	569.004	-0	-500
21.3333	0.0569877	0.0569877	0.0569877	30.6927	1000	-6.52749e-07	15.592	15.5379	13.2287	13.2287	15.592	15.5379	13.2287	15.592	15.5379	568.662	-0	-500
21.4167	0.0569877	0.0569877	0.0569877	30.6927	1000	-6.52749e-07	15.5828	15.5289	13.2207	13.2207	15.5828	15.5289	13.2207	15.5828	15.5289	568.32	-0	-500
21.5	0.0569877	0.0569877	0.0569877	30.6927	1000	-6.52749e-07	15.5736	15.52	13.2128	13.2128	15.5736	15.52	13.2128	15.5736	15.52	567.98	-0	-500
21.5833	0.0569877	0.0569877	0.0569877	30.6927	1000	-6.52749e-07	15.5644	15.5111	13.205	13.205	15.5644	15.5111	13.205	15.5644	15.5111	567.642	-0	-500
21.6667	0.0569877	0.0569877	0.0569877	30.6927	1000	-6.52749e-07	15.5553	15.5022	13.1971	13.1971	15.5553	15.5022	13.1971	15.5553	15.5022	567.306	-0	-500
21.75	0.0569877	0.0569877	0.0569877	30.6927	1000	-6.52749e-07	15.5462	15.4934	13.1894	13.1894	15.5462	15.4934	13.1894	15.5462	15.4934	566.971	-0	-500
21.8333	0.0569877	0.0569877	0.0569877	30.6927	1000	-6.52749e-07	15.5372	15.4846	13.1816	13.1816	15.5372	15.4846	13.1816	15.5372	15.4846	566.638	-0	-500
21.9167	0.0569877	0.0569877	0.0569877	30.6927	1000	-6.52749e-07	15.5282	15.4759	13.1739	13.1739	15.5282	15.4759	13.1739	15.5282	15.4759	566.307	-0	-500
22	0.0569877	0.0569877	0.0569877	30.6927	1000	-6.52749e-07	15.5192	15.4672	13.1662	13.1662	15.5192	15.4672	13.1662	15.5192	15.4672	565.977	-0	-500
22.0833	0.0569877	0.0569877	0.0569877	30.6927	1000	-6.52749e-07	15.5103	15.4586	13.1586	13.1586	15.5103	15.4586	13.1586	15.5103	15.4586	565.649	-0	-500
22.1667	0.0569877	0.0569877	0.0569877	30.6927	1000	-6.52749e-07	15.5015	15.45	13.151	13.151	15.5015	15.45	13.151	15.5015	15.45	565.323	-0	-500
22.25	0.0569877	0.0569877	0.0569877	30.6927	1000	-6.52749e-07	15.4927	15.4415	13.1435	13.1435	15.4927	15.4415	13.1435	15.4927	15.4415	564.998	-0	-500
22.3333	0.0569877	0.0569877	0.0569877	30.6927	1000	-6.52749e-07	15.4839	15.433	13.136	13.136	15.4839	15.433	13.136	15.4839	15.433	564.675	-0	-500
22.4167	0.0569877	0.0569877	0.0569877	30.6927	1000	-6.52749e-07	15.4752	15.4245	13.1285	13.1285	15.4752	15.4245	13.1285	15.4752	15.4245	564.354	-0	-500
22.5	0.0569877	0.0569877	0.0569877	30.6927	1000	-6.52749e-07	15.4666	15.4161	13.121	13.121	15.4666	15.4161	13.121	15.4666	15.4161	564.034	-0	-500
22.5833	0.0569877	0.0569877	0.0569877	30.6927	1000	-6.52749e-07	15.4579	15.4077	13.1136	13.1136	15.4579	15.4077	13.1136	15.4579	15.4077	563.715	-0	-500
22.6667	0.0569877	0.0569877	0.0569877	30.6927	1000	-6.52749e-07	15.4493	15.3993	13.1062	13.1062	15.4493	15.3993	13.1062	15.4493	15.3993	563.398	-0	-500
22.75	0.0569877	0.0569877	0.0569877	30.6927	1000	-6.52749e-07	15.4408	15.391	13.0989	13.0989	15.4408	15.391	13.0989	15.4408	15.391	563.083	-0	-500
22.8333	0.0569877	0.0569877	0.0569877	30.6927	1000	-6.52749e-07	15.4323	15.3828	13.0916	13.0916	15.4323	15.3828	13.0916	15.4323	15.3828	562.769	-0	-500
22.9167	0.0569877	0.0569877	0.0569877	30.6927	1000	-6.52749e-07	15.4238	15.3746	13.0843	13.0843	15.4238	15.3746	13.0843	15.4238	15.3746	562.457	-0	-500
23	0.0569877	0.0569877	0.0569877	30.6927	1000	-6.52749e-07	15.4154	15.3664	13.0771	13.0771	15.4154	15.3664	13.0771	15.4154	15.3664	562.146	-0	-500
23.0833	0.0569877	0.0569877	0.0569877	30.6927	1000	-6.52749e-07	15.407	15.3583	13.0699	13.0699	15.407	15.3583	13.0699	15.407	15.3583	561.837	-0	-500
23.1667	0.0569877	0.0569877	0.0569877	30.6927	1000	-6.52749e-07	15.3987	15.3502	13.0628	13.0628	15.3987	15.3502	13.0628	15.3987	15.3502	561.53	-0	-500
23.25	0.0569877	0.0569877	0.0569877	30.6927	1000	-6.52749e-07	15.3904	15.3421	13.0557	13.0557	15.3904	15.3421	13.0557	15.3904	15.3421	561.224	-0	-500
23.3333	0.0569877	0.0569877	0.0569877	30.6927	1000	-6.52749e-07	15.3821	15.3341	13.0486	13.0486	15.3821	15.3341	13.0486	15.3821	15.3341	560.92	-0	-500
23.4167	0.0569877	0.0569877	0.0569877	30.6927	1000	-6.52749e-07	15.3739	15.3261	13.0416	13.0416	15.3739	15.3261	13.0416	15.3739	15.3261	560.617	-0	-500
23.5	0.0569877	0.0569877	0.0569877	30.6927	1000	-6.52749e-07	15.3658	15.3182	13.0345	13.0345	15.3658	15.3182	13.0345	15.3658	15.3182	560.316	-0	-500
23.5833	0.0569877	0.0569877	0.0569877	30.6927	1000	-6.52749e-07	15.3576	15.3103	13.0276	13.0276	15.3576	15.3103	13.0276	15.3576	15.3103	560.016	-0	-500
23.6667	0.0569877	0.0569877	0.0569877	30.6927	1000	-6.52749e-07	15.3495	15.3024	13.0206	13.0206	15.3495	15.3024	13.0206	15.3495	15.3024	559.717	-0	-500
23.75	0.0569877	0.0569877	0.0569877	30.6927	1000	-6.52749e-07	15.3415	15.2946	13.0137	13.0137	15.3415	15.2946	13.0137	15.3415	15.2946	559.42	-0	-500
23.8333	0.0569877	0.0569877	0.0569877	30.6927	1000	-6.52749e-07	15.3334	15.2868	13.0068	13.0068	15.3334	15.2868	13.0068	15.3334	15.2868	559.124	-0	-500
23.9167	0.0569877	0.0569877	0.0569877	30.6927	1000	-6.52749e-07	15.3255	15.2791	13	13	15.3255	15.2791	13	15.3255	15.2791	558.83	-0	-500
24	0.0569877	0.0569877	0.0569877	30.6927	1000	-6.52749e-07	15.3175	15.2714	12.9932	12.9932	15.3175	15.2714	12.9932	15.3175	15.2714	558.538	-0	-500
24.0833	0.0569877	0.0569877	0.0569877	30.6927	1000	-6.52749e-07	15.3096	15.2637	12.9864	12.9864	15.3096	15.2637	12.9864	15.3096	15.2637	558.247	-0	-500
24.1667	0.0569877	0.0569877	0.0569877	30.6927	1000	-6.52749e-07	15.3018	15.2561	12.9797	12.9797	15.3018	15.2561	12.9797	15.3018	15.2561	557.957	-0	-500
24.25	0.0569877	0.0569877	0.0569877	30.6927	1000	-6.52749e-07	15.294	15.2485	12.973	12.973	15.294	15.2485	12.973	15.294	15.2485	557.669	-0	-500
24.3333	0.0569877	0.0569877	0.0569877	30.6927	1000	-6.52749e-07	15.2862	15.241	12.9663	12.9663	15.2862	15.241	12.9663	15.2862	15.241	557.382	-0	-500
24.4167	0.0569877	0.0569877	0.0569877	30.6927	1000	-6.52749e-07	15.2785	15.2335	12.9597	12.9597	15.2785	15.2335	12.9597	15.2785	15.2335	557.097	-0	-500
24.5	0.0569877	0.0569877	0.0569877	30.6927	1000	-6.52749e-07	15.2708	15.226	12.9531	12.9531	15.2708	15.226	12.9531	15.2708	15.226	556.813	-0	-500
24.5833	0.0569877	0.0569877	0.0569877	30.6927	1000	-6.52749e-07	15.2631	15.2185	12.9465	12.9465	15.2631	15.2185	12.9465	15.2631	15.2185	556.53	-0	-500
24.6667	0.0569877	0.0569877	0.0569877	30.6927	1000	-6.52749e-07	15.2555	15.2111	12.9399	12.9399	15.2555	15.2111	12.9399	15.2555	15.2111	556.249	-0	-500
24.75	0.0569877	0.0569877	0.0569877	30.6927	1000	-6.52749e-07	15.2479	15.2038	12.9334	12.9334	15.2479	15.2038	12.9334	15.2479	15.2038	555.969	-0	-500
24.8333	0.0569877	0.0569877	0.0569877	30.6927	1000	-6.52749e-07	15.2403	15.1964	12.9269	12.9269	15.2403	15.1964	12.9269	15.2403	15.1964	555.69	-0	-500
24.9167	0.0569877	0.0569877	0.0569877	30.6927	1000	-6.52749e-07	15.2328	15.1891	12.9205	12.9205	15.2328	15.1891	12.9205	15.2328	15.1891	555.413	-0	-500
25	0.0569877	0.0569877	0.0569877	30.6927	1000	-6.52749e-07	15.2254	15.1819	12.9141	12.9141	15.2254	15.1819	12.9141	15.2254	15.1819	555.138	-0	-500
25.0833	0.0569877	0.0569877	0.0569877	30.6927	1000	-6.52749e-07	15.2179	15.1747	12.9077	12.9077	15.2179	15.1747	12.9077	15.2179	15.1747	554.863	-0	-500
25.1667	0.0569877	0.0569877	0.0569877	30.6927	1000	-6.52749e-07	15.2105	15.1675	12.9014	12.9014	15.2105	15.1675	12.9014	15.2105	15.1675	554.591	-0	-500
25.25	0.0569877	0.0569877	0.0569877	30.6927	1000	-6.52749e-07	15.2032	15.1603	12.895	12.895	15.2032	15.1603	12.895	15.2032	15.1603	554.319	-0	-500
25.3333	0.0569877	0.0569877	0.0569877	30.6927	1000	-6.52749e-07	15.1958	15.1532	12.8888	12.8888	15.1958	15.1532	12.8888	15.1958	15.1532	554.049	-0	-500
25.4167	0.0569877	0.0569877	0.0569877	30.6927	1000	-6.52749e-07	15.1886	15.1462	12.8825	12.8825	15.1886	15.1462	12.8825	15.1886	15.1462	553.78	-0	-500
25.5	0.0569877	0.0569877	0.0569877	30.6927	1000	-6.52749e-07	15.1813	15.1391	12.8763	12.8763	15.1813	15.1391	12.8763	15.1813	15.1391	553.513	-0	-500
25.5833	0.0569877	0.0569877	0.0569877	30.6927	1000	-6.52749e-07	15.1741	15.1321	12.8701	12.8701	15.1741	15.1321	12.8701	15.1741	15.1321	553.246	-0	-500
25.6667	0.0569877	0.0569877	0.0569877	30.6927	1000	-6.52749e-07	15.1669	15.1251	12.8639	12.8639	15.1669	15.1251	12.8639	15.1669	15.1251	552.981	-0	-500
25.75	0.0569877	0.0569877	0.0569877	30.6927	1000	-6.52749e-07	15.1597	15.1182	12.8578	12.8578	15.1597	15.1182	12.8578	15.1597	15.1182	552.718	-0	-500
25.8333	0.0569877	0.0569877	0.0569877	30.6927	1000	-6.52749e-07	15.1526	15.1113	12.8517	12.8517	15.1526	15.1113	12.8517	15.1526	15.1113	552.455	-0	-500
25.9167	0.0569877	0.0569877	0.0569877	30.6927	1000	-6.52749e-07	15.1456	15.1044	12.8456	12.8456	15.1456	15.1044	12.8456	15.1456	15.1044	552.195	-0	-500
26	0.0569877	0.0569877	0.0569877	30.6927	1000	-6.52749e-07	15.1385	15.0976	12.8396	12.8396	15.1385	15.0976	12.8396	15.1385	15.0976	551.935	-0	-500
26.0833	0.0569877	0.0569877	0.0569877	30.6927	1000	-6.52749e-07	15.1315	15.0908	12.8336	12.8336	15.1315	15.0908	12.8336	15.1315	15.0908	551.677	-0	-500
26.1667	0.0569877	0.0569877	0.0569877	30.6927	1000	-6.52749e-07	15.1246	15.084	12.8276	12.8276	15.1246	15.084	12.8276	15.1246	15.084	551.42	-0	-500
26.25	0.0569877	0.0569877	0.0569877	30.6927	1000	-6.52749e-07	15.1176	15.0773	12.8216	12.8216	15.1176	15.0773	12.8216	15.1176	15.0773	551.164	-0	-500
26.3333	0.0569877	0.0569877	0.0569877	30.6927	1000	-6.52749e-07	15.1107	15.0706	12.8157	12.8157	15.1107	15.0706	12.8157	15.1107	15.0706	550.91	-0	-500
26.4167	0.0569877	0.0569877	0.0569877	30.6927	1000	-6.52749e-07	15.1039	15.0639	12.8098	12.8098	15.1039	15.0639	12.8098	15.1039	15.0639	550.657	-0	-500
26.5	0.0569877	0.0569877	0.0569877	30.6927	1000	-6.52749e-07	15.097	15.0573	12.804	12.804	15.097	15.0573	12.804	15.097	15.0573	550.404	-0	-500
26.5833	0.0569877	0.0569877	0.0569877	30.6927	1000	-6.52749e-07	15.0902	15.0507	12.7981	12.7981	15.0902	15.0507	12.7981	15.0902	15.0507	550.154	-0	-500
26.6667	0.0569877	0.0569877	0.0569877	30.6927	1000	-6.52749e-07	15.0835	15.0441	12.7923	12.7923	15.0835	15.0441	12.7923	15.0835	15.0441	549.904	-0	-500
26.75	0.0569877	0.0569877	0.0569877	30.6927	1000	-6.52749e-07	15.0767	15.0376	12.7866	12.7866	15.0767	15.0376	12.7866	15.0767	15.0376	549.656	-0	-500
26.8333	0.0569877	0.0569877	0.0569877	30.6927	1000	-6.52749e-07	15.07	15.0311	12.7808	12.7808	15.07	15.0311	12.7808	15.07	15.0311	549.408	-0	-500
26.9167	0.0569877	0.0569877	0.0569877	30.6927	1000	-6.52749e-07	15.0634	15.0246	12.7751	12.7751	15.0634	15.0246	12.7751	15.0634	15.0246	549.163	-0	-500
27	0.0569877	0.0569877	0.0569877	30.6927	1000	-6.52749e-07	15.0567	15.0182	12.7694	12.7694	15.0567	15.0182	12.7694	15.0567	15.0182	548.918	-0	-500
27.0833	0.0569877	0.0569877	0.0569877	30.6927	1000	-6.52749e-07	15.0501	15.0118	12.7637	12.7637	15.0501	15.0118	12.7637	15.0501	15.0118	548.675	-0	-500
27.1667	0.0569877	0.0569877	0.0569877	30.6927	1000	-6.52749e-07	15.0436	15.0054	12.7581	12.7581	15.0436	15.0054	12.7581	15.0436	15.0054	548.433	-0	-500
27.25	0.0569877	0.0569877	0.0569877	30.6927	1000	-6.52749e-07	15.037	14.9991	12.7525	12.7525	15.037	14.9991	12.7525	15.037	14.9991	548.192	-0	-500
27.3333	0.0569877	0.0569877	0.0569877	30.6927	1000	-6.52749e-07	15.0305	14.9927	12.7469	12.7469	15.0305	14.9927	12.7469	15.0305	14.9927	547.952	-0	-500
27.4167	0.0569877	0.0569877	0.0569877	30.6927	1000	-6.52749e-07	15.0241	14.9865	12.7414	12.7414	15.0241	14.9865	12.7414	15.0241	14.9865	547.714	-0	-500
27.5	0.0569877	0.0569877	0.0569877	30.6927	1000	-6.52749e-07	15.0176	14.9802	12.7359	12.7359	15.0176	14.9802	12.7359	15.0176	14.9802	547.477	-0	-500
27.5833	0.0569877	0.0569877	0.0569877	30.6927	1000	-6.52749e-07	15.0112	14.974	12.7304	12.7304	15.0112	14.974	12.7304	15.0112	14.974	547.24	-0	-500
27.6667	0.0569877	0.0569877	0.0569877	30.6927	1000	-6.52749e-07	15.0049	14.9678	12.7249	12.7249	15.0049	14.9678	12.7249	15.0049	14.9678	547.005	-0	-500
27.75	0.0569877	0.0569877	0.0569877	30.6927	1000	-6.52749e-07	14.9985	14.9616	12.7195	12.7195	14.9985	14.9616	12.7195	14.9985	14.9616	546.771	-0	-500
27.8333	0.0569877	0.0569877	0.0569877	30.6927	1000	-6.52749e-07	14.9922	14.9555	12.714	12.714	14.9922	14.9555	12.714	14.9922	14.9555	546.538	-0	-500
27.9167	0.0569877	0.0569877	0.0569877	30.6927	1000	-6.52749e-07	14.9859	14.9494	12.7087	12.7087	14.9859	14.9494	12.7087	14.9859	14.9494	546.307	-0	-500
28	0.0569877	0.0569877	0.0569877	30.6927	1000	-6.52749e-07	14.9797	14.9434	12.7033	12.7033	14.9797	14.9434	12.7033	14.9797	14.9434	546.077	-0	-500
28.0833	0.0569877	0.0569877	0.0569877	30.6927	1000	-6.52749e-07	14.9735	14.9373	12.698	12.698	14.9735	14.9373	12.698	14.9735	14.9373	545.847	-0	-500
28.1667	0.0569877	0.0569877	0.0569877	30.6927	1000	-6.52749e-07	14.9673	14.9313	12.6927	12.6927	14.9673	14.9313	12.6927	14.9673	14.9313	545.619	-0	-500
28.25	0.0569877	0.0569877	0.0569877	30.6927	1000	-6.52749e-07	14.9611	14.9254	12.6874	12.6874	14.9611	14.9254	12.6874	14.9611	14.9254	545.393	-0	-500
28.3333	0.0569877	0.0569877	0.0569877	30.6927	1000	-6.52749e-07	14.955	14.9194	12.6821	12.6821	14.955	14.9194	12.6821	14.955	14.9194	545.167	-0	-500
28.4167	0.0569877	0.0569877	0.0569877	30.6927	1000	-6.52749e-07	14.9489	14.9135	12.6769	12.6769	14.9489	14.9135	12.6769	14.9489	14.9135	544.942	-0	-500
28.5	0.0569877	0.0569877	0.0569877	30.6927	1000	-6.52749e-07	14.9429	14.9076	12.6717	12.6717	14.9429	14.9076	12.6717	14.9429	14.9076	544.719	-0	-500
28.5833	0.0569877	0.0569877	0.0569877	30.6927	1000	-6.52749e-07	14.9368	14.9018	12.6665	12.6665	14.9368	14.9018	12.6665	14.9368	14.9018	544.496	-0	-500
28.6667	0.0569877	0.0569877	0.0569877	30.6927	1000	-6.52749e-07	14.9308	14.8959	12.6614	12.6614	14.9308	14.8959	12.6614	14.9308	14.8959	544.275	-0	-500
28.75	0.0569877	0.0569877	0.0569877	30.6927	1000	-6.52749e-07	14.9249	14.8901	12.6563	12.6563	14.9249	14.8901	12.6563	14.9249	14.8901	544.054	-0	-500
28.8333	0.0569877	0.0569877	0.0569877	30.6927	1000	-6.52749e-07	14.9189	14.8844	12.6512	12.6512	14.9189	14.8844	12.6512	14.9189	14.8844	543.835	-0	-500
28.9167	0.0569877	0.0569877	0.0569877	30.6927	1000	-6.52749e-07	14.913	14.8786	12.6461	12.6461	14.913	14.8786	12.6461	14.913	14.8786	543.617	-0	-500
29	0.0569877	0.0569877	0.0569877	30.6927	1000	-6.52749e-07	14.9071	14.8729	12.641	12.641	14.9071	14.8729	12.641	14.9071	14.8729	543.4	-0	-500
29.0833	0.0569877	0.0569877	0.0569877	30.6927	1000	-6.52749e-07	14.9013	14.8672	12.636	12.636	14.9013	14.8672	12.636	14.9013	14.8672	543.184	-0	-500
29.1667	0.0569877	0.0569877	0.0569877	30.6927	1000	-6.52749e-07	14.8954	14.8616	12.631	12.631	14.8954	14.8616	12.631	14.8954	14.8616	542.969	-0	-500
29.25	0.0569877	0.0569877	0.0569877	30.6927	1000	-6.52749e-07	14.8897	14.8559	12.626	12.626	14.8897	14.8559	12.626	14.8897	14.8559	542.756	-0	-500
29.3333	0.0569877	0.0569877	0.0569877	30.6927	1000	-6.52749e-07	14.8839	14.8504	12.6211	12.6211	14.8839	14.8504	12.6211	14.8839	14.8504	542.543	-0	-500
29.4167	0.0569877	0.0569877	0.0569877	30.6927	1000	-6.52749e-07	14.8782	14.8448	12.6162	12.6162	14.8782	14.8448	12.6162	14.8782	14.8448	542.332	-0	-500
29.5	0.0569877	0.0569877	0.0569877	30.6927	1000	-6.52749e-07	14.8724	14.8392	12.6113	12.6113	14.8724	14.8392	12.6113	14.8724	14.8392	542.121	-0	-500
29.5833	0.0569877	0.0569877	0.0569877	30.6927	1000	-6.52749e-07	14.8668	14.8337	12.6064	12.6064	14.8668	14.8337	12.6064	14.8668	14.8337	541.911	-0	-500
29.6667	0.0569877	0.0569877	0.0569877	30.6927	1000	-6.52749e-07	14.8611	14.8282	12.6015	12.6015	14.8611	14.8282	12.6015	14.8611	14.8282	541.703	-0	-500
29.75	0.0569877	0.0569877	0.0569877	30.6927	1000	-6.52749e-07	14.8555	14.8228	12.5967	12.5967	14.8555	14.8228	12.5967	14.8555	14.8228	541.495	-0	-500
29.8333	0.0569877	0.0569877	0.0569877	30.6927	1000	-6.52749e-07	14.8499	14.8173	12.5919	12.5919	14.8499	14.8173	12.5919	14.8499	14.8173	541.289	-0	-500
29.9167	0.0569877	0.0569877	0.0569877	30.6927	1000	-6.52749e-07	14.8443	14.8119	12.5871	12.5871	14.8443	14.8119	12.5871	14.8443	14.8119	541.083	-0	-500
30	0.0569877	0.0569877	0.0569877	30.6927	1000	-6.52749e-07	14.8388	14.8065	12.5824	12.5824	14.8388	14.8065	12.5824	14.8388	14.8065	540.879	-0	-500
30.0833	0.0569877	0.0569877	0.0569877	30.6927	1000	-6.52749e-07	14.8333	14.8012	12.5777	12.5777	14.8333	14.8012	12.5777	14.8333	14.8012	540.676	-0	-500
30.1667	0.0569877	0.0569877	0.0569877	30.6927	1000	-6.52749e-07	14.8278	14.7959	12.573	12.573	14.8278	14.7959	12.573	14.8278	14.7959	540.473	-0	-500
30.25	0.0569877	0.0569877	0.0569877	30.6927	1000	-6.52749e-07	14.8223	14.7906	12.5683	12.5683	14.8223	14.7906	12.5683	14.8223	14.7906	540.272	-0	-500
30.3333	0.0569877	0.0569877	0.0569877	30.6927	1000	-6.52749e-07	14.8169	14.7853	12.5636	12.5636	14.8169	14.7853	12.5636	14.8169	14.7853	540.072	-0	-500
30.4167	0.0569877	0.0569877	0.0569877	30.6927	1000	-6.52749e-07	14.8115	14.7801	12.559	12.559	14.8115	14.7801	12.559	14.8115	14.7801	539.873	-0	-500
30.5	0.0569877	0.0569877	0.0569877	30.6927	1000	-6.52749e-07	14.8061	14.7748	12.5544	12.5544	14.8061	14.7748	12.5544	14.8061	14.7748	539.674	-0	-500
30.5833	0.0569877	0.0569877	0.0569877	30.6927	1000	-6.52749e-07	14.8007	14.7696	12.5498	12.5498	14.8007	14.7696	12.5498	14.8007	14.7696	539.477	-0	-500
30.6667	0.0569877	0.0569877	0.0569877	30.6927	1000	-6.52749e-07	14.7954	14.7645	12.5452	12.5452	14.7954	14.7645	12.5452	14.7954	14.7645	539.28	-0	-500
30.75	0.0569877	0.0569877	0.0569877	30.6927	1000	-6.52749e-07	14.7901	14.7593	12.5406	12.5406	14.7901	14.7593	12.5406	14.7901	14.7593	539.085	-0	-500
30.8333	0.0569877	0.0569877	0.0569877	30.6927	1000	-6.52749e-07	14.7848	14.7542	12.5361	12.5361	14.7848	14.7542	12.5361	14.7848	14.7542	538.89	-0	-500
30.9167	0.0569877	0.0569877	0.0569877	30.6927	1000	-6.52749e-07	14.7796	14.7491	12.5316	12.5316	14.7796	14.7491	12.5316	14.7796	14.7491	538.697	-0	-500
31	0.0569877	0.0569877	0.0569877	30.6927	1000	-6.52749e-07	14.7744	14.744	12.5271	12.5271	14.7744	14.744	12.5271	14.7744	14.744	538.504	-0	-500
31.0833	0.0569877	0.0569877	0.0569877	30.6927	1000	-6.52749e-07	14.7692	14.739	12.5227	12.5227	14.7692	14.739	12.5227	14.7692	14.739	538.313	-0	-500
31.1667	0.0569877	0.0569877	0.0569877	30.6927	1000	-6.52749e-07	14.764	14.734	12.5183	12.5183	14.764	14.734	12.5183	14.764	14.734	538.122	-0	-500
31.25	0.0569877	0.0569877	0.0569877	30.6927	1000	-6.52749e-07	14.7589	14.729	12.5139	12.5139	14.7589	14.729	12.5139	14.7589	14.729	537.933	-0	-500
31.3333	0.0569877	0.0569877	0.0569877	30.6927	1000	-6.52749e-07	14.7538	14.724	12.5095	12.5095	14.7538	14.724	12.5095	14.7538	14.724	537.744	-0	-500
31.4167	0.0569877	0.0569877	0.0569877	30.6927	1000	-6.52749e-07	14.7487	14.7191	12.5051	12.5051	14.7487	14.7191	12.5051	14.7487	14.7191	537.557	-0	-500
31.5	0.0569877	0.0569877	0.0569877	30.6927	1000	-6.52749e-07	14.7436	14.7142	12.5007	12.5007	14.7436	14.7142	12.5007	14.7436	14.7142	537.37	-0	-500
31.5833	0.0569877	0.0569877	0.0569877	30.6927	1000	-6.52749e-07	14.7386	14.7093	12.4964	12.4964	14.7386	14.7093	12.4964	14.7386	14.7093	537.184	-0	-500
31.6667	0.0569877	0.0569877	0.0569877	30.6927	1000	-6.52749e-07	14.7336	14.7044	12.4921	12.4921	14.7336	14.7044	12.4921	14.7336	14.7044	536.999	-0	-500
31.75	0.0569877	0.0569877	0.0569877	30.6927	1000	-6.52749e-07	14.7286	14.6995	12.4878	12.4878	14.7286	14.6995	12.4878	14.7286	14.6995	536.815	-0	-500
31.8333	0.0569877	0.0569877	0.0569877	30.6927	1000	-6.52749e-07	14.7236	14.6947	12.4836	12.4836	14.7236	14.6947	12.4836	14.7236	14.6947	536.631	-0	-500
31.9167	0.0569877	0.0569877	0.0569877	30.6927	1000	-6.52749e-07	14.7187	14.6899	12.4793	12.4793	14.7187	14.6899	12.4793	14.7187	14.6899	536.449	-0	-500
32	0.0569877	0.0569877	0.0569877	30.6927	1000	-6.52749e-07	14.7137	14.6852	12.4751	12.4751	14.7137	14.6852	12.4751	14.7137	14.6852	536.268	-0	-500
32.0833	0.0569877	0.0569877	0.0569877	30.6927	1000	-6.52749e-07	14.7089	14.6804	12.4709	12.4709	14.7089	14.6804	12.4709	14.7089	14.6804	536.087	-0	-500
32.1667	0.0569877	0.0569877	0.0569877	30.6927	1000	-6.52749e-07	14.704	14.6757	12.4667	12.4667	14.704	14.6757	12.4667	14.704	14.6757	535.908	-0	-500
32.25	0.0569877	0.0569877	0.0569877	30.6927	1000	-6.52749e-07	14.6991	14.671	12.4626	12.4626	14.6991	14.671	12.4626	14.6991	14.671	535.729	-0	-500
32.3333	0.0569877	0.0569877	0.0569877	30.6927	1000	-6.52749e-07	14.6943	14.6663	12.4585	12.4585	14.6943	14.6663	12.4585	14.6943	14.6663	535.552	-0	-500
32.4167	0.0569877	0.0569877	0.0569877	30.6927	1000	-6.52749e-07	14.6895	14.6617	12.4543	12.4543	14.6895	14.6617	12.4543	14.6895	14.6617	535.375	-0	-500
32.5	0.0569877	0.0569877	0.0569877	30.6927	1000	-6.52749e-07	14.6848	14.657	12.4503	12.4503	14.6848	14.657	12.4503	14.6848	14.657	535.199	-0	-500
32.5833	0.0569877	0.0569877	0.0569877	30.6927	1000	-6.52749e-07	14.68	14.6524	12.4462	12.4462	14.68	14.6524	12.4462	14.68	14.6524	535.024	-0	-500
32.6667	0.0569877	0.0569877	0.0569877	30.6927	1000	-6.52749e-07	14.6753	14.6478	12.4421	12.4421	14.6753	14.6478	12.4421	14.6753	14.6478	534.849	-0	-500
32.75	0.0569877	0.0569877	0.0569877	30.6927	1000	-6.52749e-07	14.6706	14.6433	12.4381	12.4381	14.6706	14.6433	12.4381	14.6706	14.6433	534.676	-0	-500
32.8333	0.0569877	0.0569877	0.0569877	30.6927	1000	-6.52749e-07	14.6659	14.6387	12.4341	12.4341	14.6659	14.6387	12.4341	14.6659	14.6387	534.503	-0	-500
32.9167	0.0569877	0.0569877	0.0569877	30.6927	1000	-6.52749e-07	14.6613	14.6342	12.4301	12.4301	14.6613	14.6342	12.4301	14.6613	14.6342	534.332	-0	-500
33	0.0569877	0.0569877	0.0569877	30.6927	1000	-6.52749e-07	14.6566	14.6297	12.4261	12.4261	14.6566	14.6297	12.4261	14.6566	14.6297	534.161	-0	-500
33.0833	0.0569877	0.0569877	0.0569877	30.6927	1000	-6.52749e-07	14.652	14.6252	12.4222	12.4222	14.652	14.6252	12.4222	14.652	14.6252	533.991	-0	-500
33.1667	0.0569877	0.0569877	0.0569877	30.6927	1000	-6.52749e-07	14.6474	14.6208	12.4182	12.4182	14.6474	14.6208	12.4182	14.6474	14.6208	533.822	-0	-500
33.25	0.0569877	0.0569877	0.0569877	30.6927	1000	-6.52749e-07	14.6429	14.6163	12.4143	12.4143	14.6429	14.6163	12.4143	14.6429	14.6163	533.654	-0	-500
33.3333	0.0569877	0.0569877	0.0569877	30.6927	1000	-6.52749e-07	14.6383	14.6119	12.4104	12.4104	14.6383	14.6119	12.4104	14.6383	14.6119	533.487	-0	-500
33.4167	0.0569877	0.0569877	0.0569877	30.6927	1000	-6.52749e-07	14.6338	14.6076	12.4065	12.4065	14.6338	14.6076	12.4065	14.6338	14.6076	533.32	-0	-500
33.5	0.0569877	0.0569877	0.0569877	30.6927	1000	-6.52749e-07	14.6293	14.6032	12.4027	12.4027	14.6293	14.6032	12.4027	14.6293	14.6032	533.154	-0	-500
33.5833	0.0569877	0.0569877	0.0569877	30.6927	1000	-6.52749e-07	14.6249	14.5988	12.3988	12.3988	14.6249	14.5988	12.3988	14.6249	14.5988	532.989	-0	-500
33.6667	0.0569877	0.0569877	0.0569877	30.6927	1000	-6.52749e-07	14.6204	14.5945	12.395	12.395	14.6204	14.5945	12.395	14.6204	14.5945	532.825	-0	-500
33.75	0.0569877	0.0569877	0.0569877	30.6927	1000	-6.52749e-07	14.616	14.5902	12.3912	12.3912	14.616	14.5902	12.3912	14.616	14.5902	532.662	-0	-500
33.8333	0.0569877	0.0569877	0.0569877	30.6927	1000	-6.52749e-07	14.6116	14.5859	12.3874	12.3874	14.6116	14.5859	12.3874	14.6116	14.5859	532.499	-0	-500
33.9167	0.0569877	0.0569877	0.0569877	30.6927	1000	-6.52749e-07	14.6072	14.5817	12.3837	12.3837	14.6072	14.5817	12.3837	14.6072	14.5817	532.338	-0	-500
34	0.0569877	0.0569877	0.0569877	30.6927	1000	-6.52749e-07	14.6028	14.5775	12.3799	12.3799	14.6028	14.5775	12.3799	14.6028	14.5775	532.177	-0	-500
34.0833	0.0569877	0.0569877	0.0569877	30.6927	1000	-6.52749e-07	14.5985	14.5732	12.3762	12.3762	14.5985	14.5732	12.3762	14.5985	14.5732	532.017	-0	-500
34.1667	0.0569877	0.0569877	0.0569877	30.6927	1000	-6.52749e-07	14.5942	14.5691	12.3725	12.3725	14.5942	14.5691	12.3725	14.5942	14.5691	531.857	-0	-500
34.25	0.0569877	0.0569877	0.0569877	30.6927	1000	-6.52749e-07	14.5899	14.5649	12.3688	12.3688	14.5899	14.5649	12.3688	14.5899	14.5649	531.699	-0	-500
34.3333	0.0569877	0.0569877	0.0569877	30.6927	1000	-6.52749e-07	14.5856	14.5607	12.3652	12.3652	14.5856	14.5607	12.3652	14.5856	14.5607	531.541	-0	-500
34.4167	0.0569877	0.0569877	0.0569877	30.6927	1000	-6.52749e-07	14.5813	14.5566	12.3615	12.3615	14.5813	14.5566	12.3615	14.5813	14.5566	531.385	-0	-500
34.5	0.0569877	0.0569877	0.0569877	30.6927	1000	-6.52749e-07	14.5771	14.5525	12.3579	12.3579	14.5771	14.5525	12.3579	14.5771	14.5525	531.228	-0	-500
34.5833	0.0569877	0.0569877	0.0569877	30.6927	1000	-6.52749e-07	14.5729	14.5484	12.3543	12.3543	14.5729	14.5484	12.3543	14.5729	14.5484	531.073	-0	-500
34.6667	0.0569877	0.0569877	0.0569877	30.6927	1000	-6.52749e-07	14.5687	14.5443	12.3507	12.3507	14.5687	14.5443	12.3507	14.5687	14.5443	530.918	-0	-500
34.75	0.0569877	0.0569877	0.0569877	30.6927	1000	-6.52749e-07	14.5645	14.5403	12.3471	12.3471	14.5645	14.5403	12.3471	14.5645	14.5403	530.764	-0	-500
34.8333	0.0569877	0.0569877	0.0569877	30.6927	1000	-6.52749e-07	14.5604	14.5363	12.3435	12.3435	14.5604	14.5363	12.3435	14.5604	14.5363	530.611	-0	-500
34.9167	0.0569877	0.0569877	0.0569877	30.6927	1000	-6.52749e-07	14.5563	14.5322	12.34	12.34	14.5563	14.5322	12.34	14.5563	14.5322	530.459	-0	-500
35	0.0569877	0.0569877	0.0569877	30.6927	1000	-6.52749e-07	14.5521	14.5283	12.3365	12.3365	14.5521	14.5283	12.3365	14.5521	14.5283	530.308	-0	-500
35.0833	0.0569877	0.0569877	0.0569877	30.6927	1000	-6.52749e-07	14.5481	14.5243	12.333	12.333	14.5481	14.5243	12.333	14.5481	14.5243	530.157	-0	-500
35.1667	0.0569877	0.0569877	0.0569877	30.6927	1000	-6.52749e-07	14.544	14.5203	12.3295	12.3295	14.544	14.5203	12.3295	14.544	14.5203	530.007	-0	-500
35.25	0.0569877	0.0569877	0.0569877	30.6927	1000	-6.52749e-07	14.5399	14.5164	12.326	12.326	14.5399	14.5164	12.326	14.5399	14.5164	529.858	-0	-500
35.3333	0.0569877	0.0569877	0.0569877	30.6927	1000	-6.52749e-07	14.5359	14.5125	12.3225	12.3225	14.5359	14.5125	12.3225	14.5359	14.5125	529.709	-0	-500
35.4167	0.0569877	0.0569877	0.0569877	30.6927	1000	-6.52749e-07	14.5319	14.5086	12.3191	12.3191	14.5319	14.5086	12.3191	14.5319	14.5086	529.562	-0	-500
35.5	0.0569877	0.0569877	0.0569877	30.6927	1000	-6.52749e-07	14.5279	14.5047	12.3157	12.3157	14.5279	14.5047	12.3157	14.5279	14.5047	529.414	-0	-500
35.5833	0.0569877	0.0569877	0.0569877	30.6927	1000	-6.52749e-07	14.524	14.5009	12.3123	12.3123	14.524	14.5009	12.3123	14.524	14.5009	529.268	-0	-500
35.6667	0.0569877	0.0569877	0.0569877	30.6927	1000	-6.52749e-07	14.52	14.4971	12.3089	12.3089	14.52	14.4971	12.3089	14.52	14.4971	529.122	-0	-500
35.75	0.0569877	0.0569877	0.0569877	30.6927	1000	-6.52749e-07	14.5161	14.4932	12.3055	12.3055	14.5161	14.4932	12.3055	14.5161	14.4932	528.977	-0	-500
35.8333	0.0569877	0.0569877	0.0569877	30.6927	1000	-6.52749e-07	14.5122	14.4894	12.3022	12.3022	14.5122	14.4894	12.3022	14.5122	14.4894	528.833	-0	-500
35.9167	0.0569877	0.0569877	0.0569877	30.6927	1000	-6.52749e-07	14.5083	14.4857	12.2988	12.2988	14.5083	14.4857	12.2988	14.5083	14.4857	528.69	-0	-500
36	0.0569877	0.0569877	0.0569877	30.6927	1000	-6.52749e-07	14.5044	14.4819	12.2955	12.2955	14.5044	14.4819	12.2955	14.5044	14.4819	528.547	-0	-500
36.0833	0.0569877	0.0569877	0.0569877	30.6927	1000	-6.52749e-07	14.5006	14.4782	12.2922	12.2922	14.5006	14.4782	12.2922	14.5006	14.4782	528.405	-0	-500
36.1667	0.0569877	0.0569877	0.0569877	30.6927	1000	-6.52749e-07	14.4967	14.4745	12.2889	12.2889	14.4967	14.4745	12.2889	14.4967	14.4745	528.264	-0	-500
36.25	0.0569877	0.0569877	0.0569877	30.6927	1000	-6.52749e-07	14.4929	14.4708	12.2857	12.2857	14.4929	14.4708	12.2857	14.4929	14.4708	528.123	-0	-500
36.3333	0.0569877	0.0569877	0.0569877	30.6927	1000	-6.52749e-07	14.4891	14.4671	12.2824	12.2824	14.4891	14.4671	12.2824	14.4891	14.4671	527.984	-0	-500
36.4167	0.0569877	0.0569877	0.0569877	30.6927	1000	-6.52749e-07	14.4854	14.4634	12.2792	12.2792	14.4854	14.4634	12.2792	14.4854	14.4634	527.844	-0	-500
36.5	0.0569877	0.0569877	0.0569877	30.6927	1000	-6.52749e-07	14.4816	14.4598	12.2759	12.2759	14.4816	14.4598	12.2759	14.4816	14.4598	527.706	-0	-500
36.5833	0.0569877	0.0569877	0.0569877	30.6927	1000	-6.52749e-07	14.4779	14.4561	12.2727	12.2727	14.4779	14.4561	12.2727	14.4779	14.4561	527.568	-0	-500
36.6667	0.0569877	0.0569877	0.0569877	30.6927	1000	-6.52749e-07	14.4741	14.4525	12.2695	12.2695	14.4741	14.4525	12.2695	14.4741	14.4525	527.431	-0	-500
36.75	0.0569877	0.0569877	0.0569877	30.6927	1000	-6.52749e-07	14.4704	14.4489	12.2664	12.2664	14.4704	14.4489	12.2664	14.4704	14.4489	527.294	-0	-500
36.8333	0.0569877	0.0569877	0.0569877	30.6927	1000	-6.52749e-07	14.4668	14.4454	12.2632	12.2632	14.4668	14.4454	12.2632	14.4668	14.4454	527.158	-0	-500
36.9167	0.0569877	0.0569877	0.0569877	30.6927	1000	-6.52749e-07	14.4631	14.4418	12.2601	12.2601	14.4631	14.4418	12.2601	14.4631	14.4418	527.023	-0	-500
37	0.0569877	0.0569877	0.0569877	30.6927	1000	-6.52749e-07	14.4595	14.4383	12.2569	12.2569	14.4595	14.4383	12.2569	14.4595	14.4383	526.889	-0	-500
37.0833	0.0569877	0.0569877	0.0569877	30.6927	1000	-6.52749e-07	14.4558	14.4347	12.2538	12.2538	14.4558	14.4347	12.2538	14.4558	14.4347	526.755	-0	-500
37.1667	0.0569877	0.0569877	0.0569877	30.6927	1000	-6.52749e-07	14.4522	14.4312	12.2507	12.2507	14.4522	14.4312	12.2507	14.4522	14.4312	526.622	-0	-500
37.25	0.0569877	0.0569877	0.0569877	30.6927	1000	-6.52749e-07	14.4486	14.4278	12.2476	12.2476	14.4486	14.4278	12.2476	14.4486	14.4278	526.49	-0	-500
37.3333	0.0569877	0.0569877	0.0569877	30.6927	1000	-6.52749e-07	14.4451	14.4243	12.2446	12.2446	14.4451	14.4243	12.2446	14.4451	14.4243	526.358	-0	-500
37.4167	0.0569877	0.0569877	0.0569877	30.6927	1000	-6.52749e-07	14.4415	14.4208	12.2415	12.2415	14.4415	14.4208	12.2415	14.4415	14.4208	526.227	-0	-500
37.5	0.0569877	0.0569877	0.0569877	30.6927	1000	-6.52749e-07	14.438	14.4174	12.2385	12.2385	14.438	14.4174	12.2385	14.438	14.4174	526.096	-0	-500
37.5833	0.0569877	0.0569877	0.0569877	30.6927	1000	-6.52749e-07	14.4344	14.414	12.2355	12.2355	14.4344	14.414	12.2355	14.4344	14.414	525.967	-0	-500
37.6667	0.0569877	0.0569877	0.0569877	30.6927	1000	-6.52749e-07	14.4309	14.4106	12.2325	12.2325	14.4309	14.4106	12.2325	14.4309	14.4106	525.837	-0	-500
37.75	0.0569877	0.0569877	0.0569877	30.6927	1000	-6.52749e-07	14.4275	14.4072	12.2295	12.2295	14.4275	14.4072	12.2295	14.4275	14.4072	525.709	-0	-500
37.8333	0.0569877	0.0569877	0.0569877	30.6927	1000	-6.52749e-07	14.424	14.4038	12.2265	12.2265	14.424	14.4038	12.2265	14.424	14.4038	525.581	-0	-500
37.9167	0.0569877	0.0569877	0.0569877	30.6927	1000	-6.52749e-07	14.4205	14.4005	12.2235	12.2235	14.4205	14.4005	12.2235	14.4205	14.4005	525.453	-0	-500
38	0.0569877	0.0569877	0.0569877	30.6927	1000	-6.52749e-07	14.4171	14.3971	12.2206	12.2206	14.4171	14.3971	12.2206	14.4171	14.3971	525.327	-0	-500
38.0833	0.0569877	0.0569877	0.0569877	30.6927	1000	-6.52749e-07	14.4137	14.3938	12.2177	12.2177	14.4137	14.3938	12.2177	14.4137	14.3938	525.201	-0	-500
38.1667	0.0569877	0.0569877	0.0569877	30.6927	1000	-6.52749e-07	14.4103	14.3905	12.2148	12.2148	14.4103	14.3905	12.2148	14.4103	14.3905	525.076	-0	-500
38.25	0.0569877	0.0569877	0.0569877	30.6927	1000	-6.52749e-07	14.4069	14.3872	12.2119	12.2119	14.4069	14.3872	12.2119	14.4069	14.3872	524.951	-0	-500
38.3333	0.0569877	0.0569877	0.0569877	30.6927	1000	-6.52749e-07	14.4036	14.384	12.209	12.209	14.4036	14.384	12.209	14.4036	14.384	524.827	-0	-500
38.4167	0.0569877	0.0569877	0.0569877	30.6927	1000	-6.52749e-07	14.4002	14.3807	12.2061	12.2061	14.4002	14.3807	12.2061	14.4002	14.3807	524.703	-0	-500
38.5	0.0569877	0.0569877	0.0569877	30.6927	1000	-6.52749e-07	14.3969	14.3775	12.2032	12.2032	14.3969	14.3775	12.2032	14.3969	14.3775	524.581	-0	-500
38.5833	0.0569877	0.0569877	0.0569877	30.6927	1000	-6.52749e-07	14.3936	14.3743	12.2004	12.2004	14.3936	14.3743	12.2004	14.3936	14.3743	524.458	-0	-500
38.6667	0.0569877	0.0569877	0.0569877	30.6927	1000	-6.52749e-07	14.3903	14.3711	12.1976	12.1976	14.3903	14.3711	12.1976	14.3903	14.3711	524.336	-0	-500
38.75	0.0569877	0.0569877	0.0569877	30.6927	1000	-6.52749e-07	14.387	14.3679	12.1947	12.1947	14.387	14.3679	12.1947	14.387	14.3679	524.215	-0	-500
38.8333	0.0569877	0.0569877	0.0569877	30.6927	1000	-6.52749e-07	14.3837	14.3647	12.1919	12.1919	14.3837	14.3647	12.1919	14.3837	14.3647	524.095	-0	-500
38.9167	0.0569877	0.0569877	0.0569877	30.6927	1000	-6.52749e-07	14.3805	14.3616	12.1891	12.1891	14.3805	14.3616	12.1891	14.3805	14.3616	523.975	-0	-500
39	0.0569877	0.0569877	0.0569877	30.6927	1000	-6.52749e-07	14.3772	14.3584	12.1864	12.1864	14.3772	14.3584	12.1864	14.3772	14.3584	523.856	-0	-500
39.0833	0.0569877	0.0569877	0.0569877	30.6927	1000	-6.52749e-07	14.374	14.3553	12.1836	12.1836	14.374	14.3553	12.1836	14.374	14.3553	523.737	-0	-500
39.1667	0.0569877	0.0569877	0.0569877	30.6927	1000	-6.52749e-07	14.3708	14.3522	12.1809	12.1809	14.3708	14.3522	12.1809	14.3708	14.3522	523.619	-0	-500
39.25	0.0569877	0.0569877	0.0569877	30.6927	1000	-6.52749e-07	14.3676	14.3491	12.1781	12.1781	14.3676	14.3491	12.1781	14.3676	14.3491	523.502	-0	-500
39.3333	0.0569877	0.0569877	0.0569877	30.6927	1000	-6.52749e-07	14.3644	14.346	12.1754	12.1754	14.3644	14.346	12.1754	14.3644	14.346	523.385	-0	-500
39.4167	0.0569877	0.0569877	0.0569877	30.6927	1000	-6.52749e-07	14.3613	14.343	12.1727	12.1727	14.3613	14.343	12.1727	14.3613	14.343	523.268	-0	-500
39.5	0.0569877	0.0569877	0.0569877	30.6927	1000	-6.52749e-07	14.3582	14.3399	12.17	12.17	14.3582	14.3399	12.17	14.3582	14.3399	523.153	-0	-500
39.5833	0.0569877	0.0569877	0.0569877	30.6927	1000	-6.52749e-07	14.355	14.3369	12.1673	12.1673	14.355	14.3369	12.1673	14.355	14.3369	523.037	-0	-500
39.6667	0.0569877	0.0569877	0.0569877	30.6927	1000	-6.52749e-07	14.3519	14.3339	12.1647	12.1647	14.3519	14.3339	12.1647	14.3519	14.3339	522.923	-0	-500
39.75	0.0569877	0.0569877	0.0569877	30.6927	1000	-6.52749e-07	14.3488	14.3309	12.162	12.162	14.3488	14.3309	12.162	14.3488	14.3309	522.809	-0	-500
39.8333	0.0569877	0.0569877	0.0569877	30.6927	1000	-6.52749e-07	14.3458	14.3279	12.1594	12.1594	14.3458	14.3279	12.1594	14.3458	14.3279	522.695	-0	-500
39.9167	0.0569877	0.0569877	0.0569877	30.6927	1000	-6.52749e-07	14.3427	14.3249	12.1568	12.1568	14.3427	14.3249	12.1568	14.3427	14.3249	522.582	-0	-500
40	0.0569877	0.0569877	0.0569877	30.6927	1000	-6.52749e-07	14.3396	14.3219	12.1541	12.1541	14.3396	14.3219	12.1541	14.3396	14.3219	522.47	-0	-500
40.0833	0.0569877	0.0569877	0.0569877	30.6927	1000	-6.52749e-07	14.3366	14.319	12.1515	12.1515	14.3366	14.319	12.1515	14.3366	14.319	522.358	-0	-500
40.1667	0.0569877	0.0569877	0.0569877	30.6927	1000	-6.52749e-07	14.3336	14.3161	12.149	12.149	14.3336	14.3161	12.149	14.3336	14.3161	522.247	-0	-500
40.25	0.0569877	0.0569877	0.0569877	30.6927	1000	-6.52749e-07	14.3306	14.3132	12.1464	12.1464	14.3306	14.3132	12.1464	14.3306	14.3132	522.136	-0	-500
40.3333	0.0569877	0.0569877	0.0569877	30.6927	1000	-6.52749e-07	14.3276	14.3103	12.1438	12.1438	14.3276	14.3103	12.1438	14.3276	14.3103	522.026	-0	-500
40.4167	0.0569877	0.0569877	0.0569877	30.6927	1000	-6.52749e-07	14.3247	14.3074	12.1413	12.1413	14.3247	14.3074	12.1413	14.3247	14.3074	521.917	-0	-500
40.5	0.0569877	0.0569877	0.0569877	30.6927	1000	-6.52749e-07	14.3217	14.3045	12.1387	12.1387	14.3217	14.3045	12.1387	14.3217	14.3045	521.808	-0	-500
40.5833	0.0569877	0.0569877	0.0569877	30.6927	1000	-6.52749e-07	14.3188	14.3016	12.1362	12.1362	14.3188	14.3016	12.1362	14.3188	14.3016	521.699	-0	-500
40.6667	0.0569877	0.0569877	0.0569877	30.6927	1000	-6.52749e-07	14.3158	14.2988	12.1337	12.1337	14.3158	14.2988	12.1337	14.3158	14.2988	521.591	-0	-500
40.75	0.0569877	0.0569877	0.0569877	30.6927	1000	-6.52749e-07	14.3129	14.296	12.1312	12.1312	14.3129	14.296	12.1312	14.3129	14.296	521.484	-0	-500
40.8333	0.0569877	0.0569877	0.0569877	30.6927	1000	-6.52749e-07	14.31	14.2932	12.1287	12.1287	14.31	14.2932	12.1287	14.31	14.2932	521.377	-0	-500
40.9167	0.0569877	0.0569877	0.0569877	30.6927	1000	-6.52749e-07	14.3071	14.2904	12.1262	12.1262	14.3071	14.2904	12.1262	14.3071	14.2904	521.271	-0	-500
41	0.0569877	0.0569877	0.0569877	30.6927	1000	-6.52749e-07	14.3043	14.2876	12.1238	12.1238	14.3043	14.2876	12.1238	14.3043	14.2876	521.165	-0	-500
41.0833	0.0569877	0.0569877	0.0569877	30.6927	1000	-6.52749e-07	14.3014	14.2848	12.1213	12.1213	14.3014	14.2848	12.1213	14.3014	14.2848	521.059	-0	-500
41.1667	0.0569877	0.0569877	0.0569877	30.6927	1000	-6.52749e-07	14.2986	14.282	12.1189	12.1189	14.2986	14.282	12.1189	14.2986	14.282	520.955	-0	-500
41.25	0.0569877	0.0569877	0.0569877	30.6927	1000	-6.52749e-07	14.2957	14.2793	12.1165	12.1165	14.2957	14.2793	12.1165	14.2957	14.2793	520.851	-0	-500
41.3333	0.0569877	0.0569877	0.0569877	30.6927	1000	-6.52749e-07	14.2929	14.2766	12.1141	12.1141	14.2929	14.2766	12.1141	14.2929	14.2766	520.747	-0	-500
41.4167	0.0569877	0.0569877	0.0569877	30.6927	1000	-6.52749e-07	14.2901	14.2739	12.1117	12.1117	14.2901	14.2739	12.1117	14.2901	14.2739	520.644	-0	-500
41.5	0.0569877	0.0569877	0.0569877	30.6927	1000	-6.52749e-07	14.2873	14.2712	12.1093	12.1093	14.2873	14.2712	12.1093	14.2873	14.2712	520.541	-0	-500
41.5833	0.0569877	0.0569877	0.0569877	30.6927	1000	-6.52749e-07	14.2846	14.2685	12.1069	12.1069	14.2846	14.2685	12.1069	14.2846	14.2685	520.439	-0	-500
41.6667	0.0569877	0.0569877	0.0569877	30.6927	1000	-6.52749e-07	14.2818	14.2658	12.1045	12.1045	14.2818	14.2658	12.1045	14.2818	14.2658	520.337	-0	-500
41.75	0.0569877	0.0569877	0.0569877	30.6927	1000	-6.52749e-07	14.2791	14.2631	12.1022	12.1022	14.2791	14.2631	12.1022	14.2791	14.2631	520.236	-0	-500
41.8333	0.0569877	0.0569877	0.0569877	30.6927	1000	-6.52749e-07	14.2763	14.2605	12.0998	12.0998	14.2763	14.2605	12.0998	14.2763	14.2605	520.135	-0	-500
41.9167	0.0569877	0.0569877	0.0569877	30.6927	1000	-6.52749e-07	14.2736	14.2578	12.0975	12.0975	14.2736	14.2578	12.0975	14.2736	14.2578	520.035	-0	-500
42	0.0569877	0.0569877	0.0569877	30.6927	1000	-6.52749e-07	14.2709	14.2552	12.0952	12.0952	14.2709	14.2552	12.0952	14.2709	14.2552	519.935	-0	-500
42.0833	0.0569877	0.0569877	0.0569877	30.6927	1000	-6.52749e-07	14.2682	14.2526	12.0929	12.0929	14.2682	14.2526	12.0929	14.2682	14.2526	519.836	-0	-500
42.1667	0.0569877	0.0569877	0.0569877	30.6927	1000	-6.52749e-07	14.2656	14.25	12.0906	12.0906	14.2656	14.25	12.0906	14.2656	14.25	519.737	-0	-500
42.25	0.0569877	0.0569877	0.0569877	30.6927	1000	-6.52749e-07	14.2629	14.2474	12.0883	12.0883	14.2629	14.2474	12.0883	14.2629	14.2474	519.639	-0	-500
42.3333	0.0569877	0.0569877	0.0569877	30.6927	1000	-6.52749e-07	14.2603	14.2449	12.086	12.086	14.2603	14.2449	12.086	14.2603	14.2449	519.542	-0	-500
42.4167	0.0569877	0.0569877	0.0569877	30.6927	1000	-6.52749e-07	14.2576	14.2423	12.0838	12.0838	14.2576	14.2423	12.0838	14.2576	14.2423	519.445	-0	-500
42.5	0.0569877	0.0569877	0.0569877	30.6927	1000	-6.52749e-07	14.255	14.2397	12.0815	12.0815	14.255	14.2397	12.0815	14.255	14.2397	519.348	-0	-500
42.5833	0.0569877	0.0569877	0.0569877	30.6927	1000	-6.52749e-07	14.2524	14.2372	12.0793	12.0793	14.2524	14.2372	12.0793	14.2524	14.2372	519.251	-0	-500
42.6667	0.0569877	0.0569877	0.0569877	30.6927	1000	-6.52749e-07	14.2498	14.2347	12.077	12.077	14.2498	14.2347	12.077	14.2498	14.2347	519.156	-0	-500
42.75	0.0569877	0.0569877	0.0569877	30.6927	1000	-6.52749e-07	14.2472	14.2322	12.0748	12.0748	14.2472	14.2322	12.0748	14.2472	14.2322	519.06	-0	-500
42.8333	0.0569877	0.0569877	0.0569877	30.6927	1000	-6.52749e-07	14.2446	14.2297	12.0726	12.0726	14.2446	14.2297	12.0726	14.2446	14.2297	518.966	-0	-500
42.9167	0.0569877	0.0569877	0.0569877	30.6927	1000	-6.52749e-07	14.2421	14.2272	12.0704	12.0704	14.2421	14.2272	12.0704	14.2421	14.2272	518.871	-0	-500
43	0.0569877	0.0569877	0.0569877	30.6927	1000	-6.52749e-07	14.2395	14.2247	12.0682	12.0682	14.2395	14.2247	12.0682	14.2395	14.2247	518.777	-0	-500
43.0833	0.0569877	0.0569877	0.0569877	30.6927	1000	-6.52749e-07	14.237	14.2223	12.0661	12.0661	14.237	14.2223	12.0661	14.237	14.2223	518.684	-0	-500
43.1667	0.0569877	0.0569877	0.0569877	30.6927	1000	-6.52749e-07	14.2345	14.2198	12.0639	12.0639	14.2345	14.2198	12.0639	14.2345	14.2198	518.591	-0	-500
43.25	0.0569877	0.0569877	0.0569877	30.6927	1000	-6.52749e-07	14.232	14.2174	12.0618	12.0618	14.232	14.2174	12.0618	14.232	14.2174	518.499	-0	-500
43.3333	0.0569877	0.0569877	0.0569877	30.6927	1000	-6.52749e-07	14.2295	14.215	12.0596	12.0596	14.2295	14.215	12.0596	14.2295	14.215	518.407	-0	-500
43.4167	0.0569877	0.0569877	0.0569877	30.6927	1000	-6.52749e-07	14.227	14.2126	12.0575	12.0575	14.227	14.2126	12.0575	14.227	14.2126	518.315	-0	-500
43.5	0.0569877	0.0569877	0.0569877	30.6927	1000	-6.52749e-07	14.2245	14.2102	12.0554	12.0554	14.2245	14.2102	12.0554	14.2245	14.2102	518.224	-0	-500
43.5833	0.0569877	0.0569877	0.0569877	30.6927	1000	-6.52749e-07	14.2221	14.2078	12.0533	12.0533	14.2221	14.2078	12.0533	14.2221	14.2078	518.133	-0	-500
43.6667	0.0569877	0.0569877	0.0569877	30.6927	1000	-6.52749e-07	14.2196	14.2054	12.0512	12.0512	14.2196	14.2054	12.0512	14.2196	14.2054	518.043	-0	-500
43.75	0.0569877	0.0569877	0.0569877	30.6927	1000	-6.52749e-07	14.2172	14.203	12.0491	12.0491	14.2172	14.203	12.0491	14.2172	14.203	517.953	-0	-500
43.8333	0.0569877	0.0569877	0.0569877	30.6927	1000	-6.52749e-07	14.2148	14.2007	12.047	12.047	14.2148	14.2007	12.047	14.2148	14.2007	517.864	-0	-500
43.9167	0.0569877	0.0569877	0.0569877	30.6927	1000	-6.52749e-07	14.2124	14.1983	12.0449	12.0449	14.2124	14.1983	12.0449	14.2124	14.1983	517.775	-0	-500
44	0.0569877	0.0569877	0.0569877	30.6927	1000	-6.52749e-07	14.21	14.196	12.0429	12.0429	14.21	14.196	12.0429	14.21	14.196	517.687	-0	-500
44.0833	0.0569877	0.0569877	0.0569877	30.6927	1000	-6.52749e-07	14.2076	14.1937	12.0408	12.0408	14.2076	14.1937	12.0408	14.2076	14.1937	517.599	-0	-500
44.1667	0.0569877	0.0569877	0.0569877	30.6927	1000	-6.52749e-07	14.2052	14.1914	12.0388	12.0388	14.2052	14.1914	12.0388	14.2052	14.1914	517.511	-0	-500
44.25	0.0569877	0.0569877	0.0569877	30.6927	1000	-6.52749e-07	14.2028	14.1891	12.0368	12.0368	14.2028	14.1891	12.0368	14.2028	14.1891	517.424	-0	-500
44.3333	0.0569877	0.0569877	0.0569877	30.6927	1000	-6.52749e-07	14.2005	14.1868	12.0347	12.0347	14.2005	14.1868	12.0347	14.2005	14.1868	517.337	-0	-500
44.4167	0.0569877	0.0569877	0.0569877	30.6927	1000	-6.52749e-07	14.1982	14.1846	12.0327	12.0327	14.1982	14.1846	12.0327	14.1982	14.1846	517.251	-0	-500
44.5	0.0569877	0.0569877	0.0569877	30.6927	1000	-6.52749e-07	14.1958	14.1823	12.0307	12.0307	14.1958	14.1823	12.0307	14.1958	14.1823	517.165	-0	-500
44.5833	0.0569877	0.0569877	0.0569877	30.6927	1000	-6.52749e-07	14.1935	14.18	12.0288	12.0288	14.1935	14.18	12.0288	14.1935	14.18	517.08	-0	-500
44.6667	0.0569877	0.0569877	0.0569877	30.6927	1000	-6.52749e-07	14.1912	14.1778	12.0268	12.0268	14.1912	14.1778	12.0268	14.1912	14.1778	516.995	-0	-500
44.75	0.0569877	0.0569877	0.0569877	30.6927	1000	-6.52749e-07	14.1889	14.1756	12.0248	12.0248	14.1889	14.1756	12.0248	14.1889	14.1756	516.91	-0	-500
44.8333	0.0569877	0.0569877	0.0569877	30.6927	1000	-6.52749e-07	14.1866	14.1734	12.0228	12.0228	14.1866	14.1734	12.0228	14.1866	14.1734	516.826	-0	-500
44.9167	0.0569877	0.0569877	0.0569877	30.6927	1000	-6.52749e-07	14.1844	14.1712	12.0209	12.0209	14.1844	14.1712	12.0209	14.1844	14.1712	516.742	-0	-500
45	0.0569877	0.0569877	0.0569877	30.6927	1000	-6.52749e-07	14.1821	14.169	12.019	12.019	14.1821	14.169	12.019	14.1821	14.169	516.659	-0	-500
45.0833	0.0569877	0.0569877	0.0569877	30.6927	1000	-6.52749e-07	14.1799	14.1668	12.017	12.017	14.1799	14.1668	12.017	14.1799	14.1668	516.576	-0	-500
45.1667	0.0569877	0.0569877	0.0569877	30.6927	1000	-6.52749e-07	14.1776	14.1646	12.0151	12.0151	14.1776	14.1646	12.0151	14.1776	14.1646	516.494	-0	-500
45.25	0.0569877	0.0569877	0.0569877	30.6927	1000	-6.52749e-07	14.1754	14.1625	12.0132	12.0132	14.1754	14.1625	12.0132	14.1754	14.1625	516.412	-0	-500
45.3333	0.0569877	0.0569877	0.0569877	30.6927	1000	-6.52749e-07	14.1732	14.1603	12.0113	12.0113	14.1732	14.1603	12.0113	14.1732	14.1603	516.33	-0	-500
45.4167	0.0569877	0.0569877	0.0569877	30.6927	1000	-6.52749e-07	14.171	14.1582	12.0094	12.0094	14.171	14.1582	12.0094	14.171	14.1582	516.249	-0	-500
45.5	0.0569877	0.0569877	0.0569877	30.6927	1000	-6.52749e-07	14.1688	14.156	12.0075	12.0075	14.1688	14.156	12.0075	14.1688	14.156	516.168	-0	-500
45.5833	0.0569877	0.0569877	0.0569877	30.6927	1000	-6.52749e-07	14.1666	14.1539	12.0057	12.0057	14.1666	14.1539	12.0057	14.1666	14.1539	516.088	-0	-500
45.6667	0.0569877	0.0569877	0.0569877	30.6927	1000	-6.52749e-07	14.1644	14.1518	12.0038	12.0038	14.1644	14.1518	12.0038	14.1644	14.1518	516.008	-0	-500
45.75	0.0569877	0.0569877	0.0569877	30.6927	1000	-6.52749e-07	14.1623	14.1497	12.002	12.002	14.1623	14.1497	12.002	14.1623	14.1497	515.928	-0	-500
45.8333	0.0569877	0.0569877	0.0569877	30.6927	1000	-6.52749e-07	14.1601	14.1476	12.0001	12.0001	14.1601	14.1476	12.0001	14.1601	14.1476	515.849	-0	-500
45.9167	0.0569877	0.0569877	0.0569877	30.6927	1000	-6.52749e-07	14.158	14.1456	11.9983	11.9983	14.158	14.1456	11.9983	14.158	14.1456	515.77	-0	-500
46	0.0569877	0.0569877	0.0569877	30.6927	1000	-6.52749e-07	14.1559	14.1435	11.9965	11.9965	14.1559	14.1435	11.9965	14.1559	14.1435	515.691	-0	-500
46.0833	0.0569877	0.0569877	0.0569877	30.6927	1000	-6.52749e-07	14.1537	14.1414	11.9946	11.9946	14.1537	14.1414	11.9946	14.1537	14.1414	515.613	-0	-500
46.1667	0.0569877	0.0569877	0.0569877	30.6927	1000	-6.52749e-07	14.1516	14.1394	11.9928	11.9928	14.1516	14.1394	11.9928	14.1516	14.1394	515.536	-0	-500
46.25	0.0569877	0.0569877	0.0569877	30.6927	1000	-6.52749e-07	14.1495	14.1374	11.991	11.991	14.1495	14.1374	11.991	14.1495	14.1374	515.459	-0	-500
46.3333	0.0569877	0.0569877	0.0569877	30.6927	1000	-6.52749e-07	14.1475	14.1353	11.9892	11.9892	14.1475	14.1353	11.9892	14.1475	14.1353	515.382	-0	-500
46.4167	0.0569877	0.0569877	0.0569877	30.6927	1000	-6.52749e-07	14.1454	14.1333	11.9875	11.9875	14.1454	14.1333	11.9875	14.1454	14.1333	515.305	-0	-500
46.5	0.0569877	0.0569877	0.0569877	30.6927	1000	-6.52749e-07	14.1433	14.1313	11.9857	11.9857	14.1433	14.1313	11.9857	14.1433	14.1313	515.229	-0	-500
46.5833	0.0569877	0.0569877	0.0569877	30.6927	1000	-6.52749e-07	14.1413	14.1293	11.9839	11.9839	14.1413	14.1293	11.9839	14.1413	14.1293	515.153	-0	-500
46.6667	0.0569877	0.0569877	0.0569877	30.6927	1000	-6.52749e-07	14.1392	14.1273	11.9822	11.9822	14.1392	14.1273	11.9822	14.1392	14.1273	515.078	-0	-500
46.75	0.0569877	0.0569877	0.0569877	30.6927	1000	-6.52749e-07	14.1372	14.1254	11.9804	11.9804	14.1372	14.1254	11.9804	14.1372	14.1254	515.003	-0	-500
46.8333	0.0569877	0.0569877	0.0569877	30.6927	1000	-6.52749e-07	14.1352	14.1234	11.9787	11.9787	14.1352	14.1234	11.9787	14.1352	14.1234	514.928	-0	-500
46.9167	0.0569877	0.0569877	0.0569877	30.6927	1000	-6.52749e-07	14.1332	14.1214	11.977	11.977	14.1332	14.1214	11.977	14.1332	14.1214	514.854	-0	-500
47	0.0569877	0.0569877	0.0569877	30.6927	1000	-6.52749e-07	14.1312	14.1195	11.9752	11.9752	14.1312	14.1195	11.9752	14.1312	14.1195	514.78	-0	-500
47.0833	0.0569877	0.0569877	0.0569877	30.6927	1000	-6.52749e-07	14.1292	14.1176	11.9735	11.9735	14.1292	14.1176	11.9735	14.1292	14.1176	514.706	-0	-500
47.1667	0.0569877	0.0569877	0.0569877	30.6927	1000	-6.52749e-07	14.1272	14.1156	11.9718	11.9718	14.1272	14.1156	11.9718	14.1272	14.1156	514.633	-0	-500
47.25	0.0569877	0.0569877	0.0569877	30.6927	1000	-6.52749e-07	14.1252	14.1137	11.9701	11.9701	14.1252	14.1137	11.9701	14.1252	14.1137	514.561	-0	-500
47.3333	0.0569877	0.0569877	0.0569877	30.6927	1000	-6.52749e-07	14.1232	14.1118	11.9685	11.9685	14.1232	14.1118	11.9685	14.1232	14.1118	514.488	-0	-500
47.4167	0.0569877	0.0569877	0.0569877	30.6927	1000	-6.52749e-07	14.1213	14.1099	11.9668	11.9668	14.1213	14.1099	11.9668	14.1213	14.1099	514.416	-0	-500
47.5	0.0569877	0.0569877	0.0569877	30.6927	1000	-6.52749e-07	14.1193	14.108	11.9651	11.9651	14.1193	14.108	11.9651	14.1193	14.108	514.344	-0	-500
47.5833	0.0569877	0.0569877	0.0569877	30.6927	1000	-6.52749e-07	14.1174	14.1062	11.9635	11.9635	14.1174	14.1062	11.9635	14.1174	14.1062	514.273	-0	-500
47.6667	0.0569877	0.0569877	0.0569877	30.6927	1000	-6.52749e-07	14.1155	14.1043	11.9618	11.9618	14.1155	14.1043	11.9618	14.1155	14.1043	514.202	-0	-500
47.75	0.0569877	0.0569877	0.0569877	30.6927	1000	-6.52749e-07	14.1136	14.1024	11.9602	11.9602	14.1136	14.1024	11.9602	14.1136	14.1024	514.131	-0	-500
47.8333	0.0569877	0.0569877	0.0569877	30.6927	1000	-6.52749e-07	14.1117	14.1006	11.9585	11.9585	14.1117	14.1006	11.9585	14.1117	14.1006	514.061	-0	-500
47.9167	0.0569877	0.0569877	0.0569877	30.6927	1000	-6.52749e-07	14.1098	14.0987	11.9569	11.9569	14.1098	14.0987	11.9569	14.1098	14.0987	513.991	-0	-500
48	0.0569877	0.0569877	0.0569877	30.6927	1000	-6.52749e-07	14.1079	14.0969	11.9553	11.9553	14.1079	14.0969	11.9553	14.1079	14.0969	513.921	-0	-500
