Time [min]	Location.[0].ElevationAngle [Deg]	Location.[0].AzimuthAngle [Deg]
90720	-71.1056	250.125
90721	-71.3406	249.878
90722	-71.5753	249.625
90723	-71.8095	249.365
90724	-72.0434	249.098
90725	-72.2768	248.824
90726	-72.5098	248.542
90727	-72.7424	248.253
90728	-72.9744	247.955
90729	-73.206	247.649
90730	-73.4371	247.334
90731	-73.6676	247.011
90732	-73.8975	246.677
90733	-74.1269	246.334
90734	-74.3557	245.981
90735	-74.5838	245.617
90736	-74.8113	245.242
90737	-75.0381	244.855
90738	-75.2642	244.456
90739	-75.4895	244.045
90740	-75.714	243.62
90741	-75.9376	243.182
90742	-76.1604	242.729
90743	-76.3823	242.262
90744	-76.6032	241.778
90745	-76.8231	241.278
90746	-77.0419	240.761
90747	-77.2596	240.227
90748	-77.4762	239.673
90749	-77.6915	239.1
90750	-77.9054	238.506
90751	-78.1181	237.89
90752	-78.3292	237.252
90753	-78.5389	236.59
90754	-78.7469	235.904
90755	-78.9532	235.191
90756	-79.1577	234.452
90757	-79.3603	233.683
90758	-79.5608	232.885
90759	-79.7593	232.055
90760	-79.9554	231.193
90761	-80.1492	230.296
90762	-80.3404	229.363
90763	-80.5289	228.392
90764	-80.7146	227.382
90765	-80.8972	226.331
90766	-81.0765	225.237
90767	-81.2525	224.098
90768	-81.4248	222.913
90769	-81.5933	221.679
90770	-81.7576	220.396
90771	-81.9176	219.06
90772	-82.073	217.671
90773	-82.2235	216.228
90774	-82.3688	214.728
90775	-82.5087	213.17
90776	-82.6428	211.555
90777	-82.7707	209.88
90778	-82.8922	208.147
90779	-83.0069	206.354
90780	-83.1145	204.504
90781	-83.2147	202.597
90782	-83.307	200.635
90783	-83.3913	198.62
90784	-83.4671	196.555
90785	-83.5342	194.445
90786	-83.5923	192.293
90787	-83.6411	190.105
90788	-83.6804	187.887
90789	-83.7102	185.644
90790	-83.7301	183.383
90791	-83.7402	181.111
90792	-83.7403	178.836
90793	-83.7306	176.564
90794	-83.7109	174.302
90795	-83.6815	172.059
90796	-83.6424	169.839
90797	-83.5939	167.65
90798	-83.5361	165.497
90799	-83.4693	163.386
90800	-83.3937	161.32
90801	-83.3097	159.303
90802	-83.2176	157.339
90803	-83.1177	155.43
90804	-83.0103	153.578
90805	-82.8958	151.784
90806	-82.7745	150.049
90807	-82.6467	148.373
90808	-82.5128	146.755
90809	-82.3731	145.196
90810	-82.228	143.694
90811	-82.0776	142.249
90812	-81.9224	140.858
90813	-81.7625	139.521
90814	-81.5983	138.236
90815	-81.4299	137.001
90816	-81.2577	135.814
90817	-81.0819	134.674
90818	-80.9026	133.579
90819	-80.7201	132.526
90820	-80.5345	131.515
90821	-80.3461	130.543
90822	-80.1549	129.609
90823	-79.9613	128.711
90824	-79.7652	127.847
90825	-79.5668	127.017
90826	-79.3663	126.217
90827	-79.1637	125.448
90828	-78.9593	124.707
90829	-78.753	123.994
90830	-78.545	123.307
90831	-78.3355	122.644
90832	-78.1243	122.005
90833	-77.9117	121.389
90834	-77.6978	120.795
90835	-77.4825	120.221
90836	-77.266	119.666
90837	-77.0483	119.131
90838	-76.8295	118.613
90839	-76.6096	118.113
90840	-76.3888	117.629
90841	-76.1669	117.161
90842	-75.9441	116.708
90843	-75.7205	116.269
90844	-75.496	115.844
90845	-75.2707	115.432
90846	-75.0447	115.033
90847	-74.8179	114.646
90848	-74.5904	114.27
90849	-74.3623	113.906
90850	-74.1335	113.552
90851	-73.9042	113.209
90852	-73.6742	112.875
90853	-73.4437	112.551
90854	-73.2126	112.236
90855	-72.981	111.93
90856	-72.749	111.632
90857	-72.5164	111.342
90858	-72.2834	111.06
90859	-72.05	110.786
90860	-71.8162	110.519
90861	-71.5819	110.258
90862	-71.3473	110.005
90863	-71.1122	109.758
90864	-70.8769	109.517
90865	-70.6411	109.282
90866	-70.4051	109.053
90867	-70.1687	108.83
90868	-69.932	108.612
90869	-69.695	108.399
90870	-69.4577	108.192
90871	-69.2201	107.989
90872	-68.9823	107.791
90873	-68.7442	107.598
90874	-68.5058	107.409
90875	-68.2672	107.224
90876	-68.0284	107.044
90877	-67.7893	106.867
90878	-67.55	106.695
90879	-67.3105	106.526
90880	-67.0708	106.361
90881	-66.8309	106.199
90882	-66.5907	106.041
90883	-66.3504	105.887
90884	-66.11	105.735
90885	-65.8693	105.587
90886	-65.6285	105.442
90887	-65.3875	105.3
90888	-65.1463	105.16
90889	-64.905	105.024
90890	-64.6635	104.89
90891	-64.4219	104.759
90892	-64.1801	104.631
90893	-63.9382	104.505
90894	-63.6962	104.381
90895	-63.454	104.26
90896	-63.2117	104.141
90897	-62.9692	104.025
90898	-62.7267	103.91
90899	-62.484	103.798
90900	-62.2412	103.688
90901	-61.9983	103.58
90902	-61.7553	103.474
90903	-61.5121	103.37
90904	-61.2689	103.267
90905	-61.0256	103.167
90906	-60.7821	103.068
90907	-60.5386	102.972
90908	-60.295	102.876
90909	-60.0513	102.783
90910	-59.8075	102.691
90911	-59.5636	102.601
90912	-59.3196	102.512
90913	-59.0755	102.425
90914	-58.8314	102.339
90915	-58.5872	102.255
90916	-58.3429	102.172
90917	-58.0985	102.091
90918	-57.854	102.011
90919	-57.6095	101.932
90920	-57.3649	101.855
90921	-57.1203	101.779
90922	-56.8755	101.704
90923	-56.6307	101.63
90924	-56.3859	101.557
90925	-56.1409	101.486
90926	-55.8959	101.416
90927	-55.6509	101.347
90928	-55.4058	101.279
90929	-55.1606	101.212
90930	-54.9154	101.146
90931	-54.6701	101.081
90932	-54.4248	101.017
90933	-54.1794	100.954
90934	-53.934	100.892
90935	-53.6885	100.831
90936	-53.4429	100.771
90937	-53.1973	100.712
90938	-52.9517	100.654
90939	-52.706	100.597
90940	-52.4603	100.54
90941	-52.2145	100.485
90942	-51.9687	100.43
90943	-51.7228	100.376
90944	-51.4769	100.323
90945	-51.231	100.27
90946	-50.985	100.219
90947	-50.739	100.168
90948	-50.4929	100.117
90949	-50.2468	100.068
90950	-50.0007	100.019
90951	-49.7545	99.9713
90952	-49.5083	99.924
90953	-49.262	99.8774
90954	-49.0157	99.8314
90955	-48.7694	99.7861
90956	-48.5231	99.7414
90957	-48.2767	99.6974
90958	-48.0302	99.6539
90959	-47.7838	99.6111
90960	-47.5373	99.5689
90961	-47.2908	99.5273
90962	-47.0443	99.4863
90963	-46.7977	99.4458
90964	-46.5511	99.4059
90965	-46.3045	99.3665
90966	-46.0578	99.3277
90967	-45.8111	99.2895
90968	-45.5644	99.2517
90969	-45.3177	99.2145
90970	-45.0709	99.1778
90971	-44.8241	99.1416
90972	-44.5773	99.1059
90973	-44.3304	99.0706
90974	-44.0836	99.0359
90975	-43.8367	99.0016
90976	-43.5898	98.9678
90977	-43.3428	98.9345
90978	-43.0959	98.9016
90979	-42.8489	98.8691
90980	-42.6019	98.8371
90981	-42.3549	98.8055
90982	-42.1078	98.7744
90983	-41.8607	98.7437
90984	-41.6137	98.7134
90985	-41.3666	98.6835
90986	-41.1194	98.654
90987	-40.8723	98.6249
90988	-40.6251	98.5961
90989	-40.3779	98.5678
90990	-40.1307	98.5399
90991	-39.8835	98.5123
90992	-39.6363	98.4851
90993	-39.389	98.4583
90994	-39.1417	98.4318
90995	-38.8944	98.4057
90996	-38.6471	98.38
90997	-38.3998	98.3545
90998	-38.1525	98.3295
90999	-37.9051	98.3048
91000	-37.6577	98.2804
91001	-37.4104	98.2563
91002	-37.1629	98.2325
91003	-36.9155	98.2091
91004	-36.6681	98.186
91005	-36.4206	98.1632
91006	-36.1732	98.1408
91007	-35.9257	98.1186
91008	-35.6782	98.0967
91009	-35.4307	98.0752
91010	-35.1832	98.0539
91011	-34.9357	98.0329
91012	-34.6881	98.0122
91013	-34.4406	97.9918
91014	-34.193	97.9717
91015	-33.9454	97.9518
91016	-33.6978	97.9322
91017	-33.4502	97.9129
91018	-33.2026	97.8939
91019	-32.955	97.8752
91020	-32.7074	97.8567
91021	-32.4597	97.8384
91022	-32.212	97.8204
91023	-31.9644	97.8027
91024	-31.7167	97.7852
91025	-31.469	97.768
91026	-31.2213	97.751
91027	-30.9736	97.7343
91028	-30.7259	97.7178
91029	-30.4781	97.7015
91030	-30.2304	97.6855
91031	-29.9826	97.6697
91032	-29.7349	97.6542
91033	-29.4871	97.6389
91034	-29.2393	97.6238
91035	-28.9915	97.6089
91036	-28.7437	97.5942
91037	-28.4959	97.5798
91038	-28.2481	97.5656
91039	-28.0003	97.5516
91040	-27.7525	97.5379
91041	-27.5046	97.5243
91042	-27.2568	97.5109
91043	-27.0089	97.4978
91044	-26.7611	97.4849
91045	-26.5132	97.4721
91046	-26.2653	97.4596
91047	-26.0174	97.4473
91048	-25.7696	97.4352
91049	-25.5217	97.4233
91050	-25.2738	97.4115
91051	-25.0258	97.4
91052	-24.7779	97.3887
91053	-24.53	97.3775
91054	-24.2821	97.3666
91055	-24.0341	97.3558
91056	-23.7862	97.3452
91057	-23.5382	97.3348
91058	-23.2903	97.3246
91059	-23.0423	97.3146
91060	-22.7944	97.3047
91061	-22.5464	97.2951
91062	-22.2984	97.2856
91063	-22.0504	97.2763
91064	-21.8025	97.2671
91065	-21.5545	97.2582
91066	-21.3065	97.2494
91067	-21.0585	97.2408
91068	-20.8105	97.2323
91069	-20.5624	97.2241
91070	-20.3144	97.216
91071	-20.0664	97.208
91072	-19.8184	97.2002
91073	-19.5703	97.1926
91074	-19.3223	97.1852
91075	-19.0743	97.1779
91076	-18.8262	97.1708
91077	-18.5782	97.1639
91078	-18.3301	97.1571
91079	-18.0821	97.1505
91080	-17.834	97.144
91081	-17.586	97.1377
91082	-17.3379	97.1315
91083	-17.0898	97.1255
91084	-16.8418	97.1197
91085	-16.5937	97.114
91086	-16.3456	97.1084
91087	-16.0975	97.1031
91088	-15.8494	97.0978
91089	-15.6013	97.0927
91090	-15.3533	97.0878
91091	-15.1052	97.083
91092	-14.8571	97.0784
91093	-14.609	97.0739
91094	-14.3609	97.0696
91095	-14.1128	97.0654
91096	-13.8647	97.0614
91097	-13.6165	97.0575
91098	-13.3684	97.0537
91099	-13.1203	97.0501
91100	-12.8722	97.0466
91101	-12.6241	97.0433
91102	-12.376	97.0401
91103	-12.1279	97.0371
91104	-11.8797	97.0342
91105	-11.6316	97.0315
91106	-11.3835	97.0289
91107	-11.1354	97.0264
91108	-10.8872	97.0241
91109	-10.6391	97.0219
91110	-10.391	97.0198
91111	-10.1428	97.0179
91112	-9.89471	97.0161
91113	-9.64657	97.0145
91114	-9.39844	97.013
91115	-9.1503	97.0116
91116	-8.90217	97.0104
91117	-8.65403	97.0093
91118	-8.40589	97.0084
91119	-8.15775	97.0075
91120	-7.90961	97.0069
91121	-7.66147	97.0063
91122	-7.41333	97.0059
91123	-7.16519	97.0056
91124	-6.91705	97.0055
91125	-6.66891	97.0055
91126	-6.42077	97.0056
91127	-6.17263	97.0058
91128	-5.92449	97.0062
91129	-5.67635	97.0068
91130	-5.42821	97.0074
91131	-5.18007	97.0082
91132	-4.93193	97.0091
91133	-4.68379	97.0102
91134	-4.43565	97.0114
91135	-4.18751	97.0127
91136	-3.93937	97.0142
91137	-3.69123	97.0157
91138	-3.44309	97.0175
91139	-3.19496	97.0193
91140	-2.94682	97.0213
91141	-2.69869	97.0234
91142	-2.45056	97.0257
91143	-2.20242	97.0281
91144	-1.95429	97.0306
91145	-1.70616	97.0332
91146	-1.45803	97.036
91147	-1.20991	97.0389
91148	-0.961782	97.0419
91149	-0.713658	97.0451
91150	-0.465535	97.0484
91151	-0.217415	97.0519
91152	0.0307045	97.0554
91153	0.278822	97.0592
91154	0.526937	97.063
91155	0.775051	97.067
91156	1.02316	97.0711
91157	1.27127	97.0753
91158	1.51938	97.0797
91159	1.76748	97.0842
91160	2.01559	97.0888
91161	2.26369	97.0936
91162	2.51178	97.0985
91163	2.75988	97.1036
91164	3.00797	97.1088
91165	3.25606	97.1141
91166	3.50415	97.1195
91167	3.75223	97.1251
91168	4.00031	97.1309
91169	4.24839	97.1367
91170	4.49647	97.1427
91171	4.74454	97.1489
91172	4.99261	97.1551
91173	5.24067	97.1615
91174	5.48874	97.1681
91175	5.7368	97.1748
91176	5.98485	97.1816
91177	6.2329	97.1886
91178	6.48095	97.1957
91179	6.729	97.2029
91180	6.97704	97.2103
91181	7.22507	97.2179
91182	7.4731	97.2255
91183	7.72113	97.2334
91184	7.96916	97.2413
91185	8.21718	97.2494
91186	8.46519	97.2577
91187	8.7132	97.2661
91188	8.96121	97.2746
91189	9.20921	97.2833
91190	9.45721	97.2921
91191	9.7052	97.3011
91192	9.95319	97.3102
91193	10.2012	97.3195
91194	10.4491	97.3289
91195	10.6971	97.3385
91196	10.9451	97.3483
91197	11.193	97.3581
91198	11.441	97.3682
91199	11.689	97.3783
91200	11.9369	97.3887
91201	12.1848	97.3992
91202	12.4328	97.4098
91203	12.6807	97.4206
91204	12.9286	97.4316
91205	13.1765	97.4427
91206	13.4245	97.454
91207	13.6724	97.4654
91208	13.9203	97.477
91209	14.1681	97.4888
91210	14.416	97.5007
91211	14.6639	97.5128
91212	14.9118	97.5251
91213	15.1596	97.5375
91214	15.4075	97.5501
91215	15.6553	97.5628
91216	15.9032	97.5757
91217	16.151	97.5888
91218	16.3988	97.6021
91219	16.6467	97.6155
91220	16.8945	97.6291
91221	17.1423	97.6429
91222	17.3901	97.6569
91223	17.6379	97.671
91224	17.8857	97.6853
91225	18.1334	97.6998
91226	18.3812	97.7145
91227	18.6289	97.7293
91228	18.8767	97.7444
91229	19.1244	97.7596
91230	19.3722	97.775
91231	19.6199	97.7906
91232	19.8676	97.8064
91233	20.1153	97.8223
91234	20.363	97.8385
91235	20.6107	97.8549
91236	20.8583	97.8714
91237	21.106	97.8882
91238	21.3537	97.9051
91239	21.6013	97.9223
91240	21.8489	97.9396
91241	22.0966	97.9572
91242	22.3442	97.9749
91243	22.5918	97.9929
91244	22.8394	98.0111
91245	23.0869	98.0294
91246	23.3345	98.048
91247	23.5821	98.0668
91248	23.8296	98.0859
91249	24.0772	98.1051
91250	24.3247	98.1246
91251	24.5722	98.1442
91252	24.8197	98.1642
91253	25.0672	98.1843
91254	25.3147	98.2046
91255	25.5621	98.2252
91256	25.8096	98.2461
91257	26.057	98.2671
91258	26.3044	98.2884
91259	26.5518	98.3099
91260	26.7992	98.3317
91261	27.0466	98.3537
91262	27.294	98.376
91263	27.5413	98.3985
91264	27.7887	98.4212
91265	28.036	98.4443
91266	28.2833	98.4675
91267	28.5306	98.491
91268	28.7779	98.5148
91269	29.0252	98.5389
91270	29.2724	98.5632
91271	29.5197	98.5878
91272	29.7669	98.6127
91273	30.0141	98.6378
91274	30.2613	98.6632
91275	30.5084	98.6889
91276	30.7556	98.7149
91277	31.0027	98.7411
91278	31.2498	98.7677
91279	31.4969	98.7946
91280	31.744	98.8217
91281	31.9911	98.8492
91282	32.2381	98.8769
91283	32.4852	98.905
91284	32.7322	98.9333
91285	32.9792	98.962
91286	33.2261	98.991
91287	33.4731	99.0204
91288	33.72	99.05
91289	33.9669	99.08
91290	34.2138	99.1103
91291	34.4607	99.141
91292	34.7076	99.172
91293	34.9544	99.2033
91294	35.2012	99.235
91295	35.448	99.2671
91296	35.6947	99.2995
91297	35.9415	99.3322
91298	36.1882	99.3654
91299	36.4349	99.3989
91300	36.6815	99.4328
91301	36.9282	99.4671
91302	37.1748	99.5017
91303	37.4214	99.5368
91304	37.668	99.5722
91305	37.9145	99.6081
91306	38.161	99.6443
91307	38.4075	99.681
91308	38.654	99.7181
91309	38.9004	99.7556
91310	39.1468	99.7936
91311	39.3932	99.832
91312	39.6396	99.8708
91313	39.8859	99.9101
91314	40.1322	99.9498
91315	40.3785	99.99
91316	40.6247	100.031
91317	40.8709	100.072
91318	41.1171	100.113
91319	41.3632	100.156
91320	41.6093	100.198
91321	41.8554	100.241
91322	42.1014	100.285
91323	42.3475	100.329
91324	42.5934	100.374
91325	42.8394	100.419
91326	43.0853	100.465
91327	43.3311	100.511
91328	43.577	100.558
91329	43.8228	100.605
91330	44.0685	100.653
91331	44.3142	100.702
91332	44.5599	100.751
91333	44.8055	100.8
91334	45.0511	100.851
91335	45.2967	100.902
91336	45.5422	100.953
91337	45.7877	101.006
91338	46.0331	101.059
91339	46.2785	101.112
91340	46.5238	101.166
91341	46.7691	101.221
91342	47.0144	101.277
91343	47.2596	101.333
91344	47.5047	101.39
91345	47.7498	101.448
91346	47.9949	101.506
91347	48.2399	101.566
91348	48.4848	101.626
91349	48.7297	101.687
91350	48.9746	101.748
91351	49.2193	101.81
91352	49.4641	101.874
91353	49.7087	101.938
91354	49.9534	102.003
91355	50.1979	102.068
91356	50.4424	102.135
91357	50.6869	102.203
91358	50.9312	102.271
91359	51.1755	102.341
91360	51.4198	102.411
91361	51.664	102.482
91362	51.9081	102.554
91363	52.1521	102.628
91364	52.3961	102.702
91365	52.64	102.777
91366	52.8838	102.854
91367	53.1276	102.931
91368	53.3713	103.01
91369	53.6149	103.09
91370	53.8584	103.171
91371	54.1018	103.253
91372	54.3452	103.336
91373	54.5885	103.42
91374	54.8317	103.506
91375	55.0748	103.593
91376	55.3178	103.681
91377	55.5607	103.771
91378	55.8035	103.862
91379	56.0463	103.954
91380	56.2889	104.047
91381	56.5314	104.143
91382	56.7739	104.239
91383	57.0162	104.337
91384	57.2584	104.437
91385	57.5005	104.538
91386	57.7426	104.641
91387	57.9844	104.745
91388	58.2262	104.851
91389	58.4679	104.959
91390	58.7094	105.068
91391	58.9508	105.179
91392	59.1921	105.292
91393	59.4333	105.407
91394	59.6743	105.524
91395	59.9152	105.643
91396	60.1559	105.764
91397	60.3965	105.886
91398	60.637	106.011
91399	60.8773	106.138
91400	61.1174	106.267
91401	61.3574	106.399
91402	61.5972	106.533
91403	61.8369	106.669
91404	62.0763	106.807
91405	62.3157	106.948
91406	62.5548	107.092
91407	62.7937	107.238
91408	63.0325	107.387
91409	63.2711	107.538
91410	63.5094	107.692
91411	63.7476	107.85
91412	63.9855	108.01
91413	64.2232	108.173
91414	64.4607	108.339
91415	64.698	108.509
91416	64.935	108.682
91417	65.1718	108.858
91418	65.4084	109.038
91419	65.6447	109.221
91420	65.8807	109.408
91421	66.1164	109.599
91422	66.3519	109.793
91423	66.5871	109.992
91424	66.8219	110.195
91425	67.0565	110.402
91426	67.2908	110.613
91427	67.5247	110.829
91428	67.7583	111.049
91429	67.9915	111.274
91430	68.2244	111.504
91431	68.4569	111.74
91432	68.689	111.98
91433	68.9208	112.226
91434	69.1521	112.477
91435	69.383	112.734
91436	69.6135	112.997
91437	69.8435	113.266
91438	70.073	113.542
91439	70.3021	113.824
91440	70.5306	114.112
91441	70.7587	114.408
91442	70.9862	114.711
91443	71.2131	115.021
91444	71.4395	115.339
91445	71.6652	115.664
91446	71.8904	115.998
91447	72.1149	116.341
91448	72.3387	116.692
91449	72.5618	117.053
91450	72.7842	117.423
91451	73.0059	117.802
91452	73.2267	118.192
91453	73.4468	118.592
91454	73.666	119.003
91455	73.8843	119.426
91456	74.1018	119.86
91457	74.3182	120.306
91458	74.5337	120.765
91459	74.7481	121.236
91460	74.9615	121.722
91461	75.1737	122.221
91462	75.3848	122.735
91463	75.5946	123.264
91464	75.8031	123.809
91465	76.0103	124.37
91466	76.2161	124.948
91467	76.4204	125.544
91468	76.6232	126.158
91469	76.8244	126.791
91470	77.024	127.443
91471	77.2217	128.116
91472	77.4177	128.81
91473	77.6117	129.526
91474	77.8036	130.265
91475	77.9935	131.027
91476	78.1812	131.814
91477	78.3665	132.627
91478	78.5494	133.465
91479	78.7297	134.331
91480	78.9074	135.225
91481	79.0822	136.147
91482	79.2541	137.1
91483	79.4229	138.084
91484	79.5885	139.099
91485	79.7507	140.147
91486	79.9093	141.228
91487	80.0642	142.343
91488	80.2151	143.494
91489	80.362	144.68
91490	80.5046	145.902
91491	80.6427	147.161
91492	80.7761	148.458
91493	80.9046	149.792
91494	81.0281	151.163
91495	81.1462	152.572
91496	81.2588	154.018
91497	81.3657	155.501
91498	81.4666	157.021
91499	81.5613	158.575
91500	81.6496	160.164
91501	81.7314	161.786
91502	81.8064	163.438
91503	81.8744	165.12
91504	81.9352	166.829
91505	81.9888	168.562
91506	82.0349	170.317
91507	82.0734	172.091
91508	82.1042	173.88
91509	82.1272	175.682
91510	82.1423	177.492
91511	82.1496	179.308
91512	82.1489	181.125
91513	82.1403	182.94
91514	82.1238	184.749
91515	82.0995	186.549
91516	82.0673	188.336
91517	82.0275	190.107
91518	81.9802	191.858
91519	81.9254	193.587
91520	81.8633	195.292
91521	81.7941	196.969
91522	81.7179	198.616
91523	81.635	200.233
91524	81.5456	201.816
91525	81.4498	203.364
91526	81.3478	204.878
91527	81.24	206.354
91528	81.1264	207.794
91529	81.0074	209.197
91530	80.883	210.562
91531	80.7536	211.889
91532	80.6194	213.179
91533	80.4805	214.432
91534	80.3372	215.649
91535	80.1896	216.829
91536	80.038	217.973
91537	79.8824	219.083
91538	79.7232	220.158
91539	79.5604	221.2
91540	79.3943	222.21
91541	79.2249	223.188
91542	79.0525	224.136
91543	78.8772	225.053
91544	78.6991	225.942
91545	78.5183	226.803
91546	78.3349	227.637
91547	78.1492	228.445
91548	77.9612	229.228
91549	77.7709	229.987
91550	77.5786	230.722
91551	77.3842	231.434
91552	77.188	232.124
91553	76.9899	232.794
91554	76.7901	233.443
91555	76.5886	234.072
91556	76.3855	234.683
91557	76.1809	235.276
91558	75.9749	235.851
91559	75.7674	236.409
91560	75.5587	236.951
91561	75.3486	237.478
91562	75.1374	237.989
91563	74.9249	238.486
91564	74.7114	238.969
91565	74.4968	239.439
91566	74.2811	239.896
91567	74.0645	240.34
91568	73.8469	240.772
91569	73.6284	241.192
91570	73.409	241.602
91571	73.1888	242
91572	72.9678	242.388
91573	72.746	242.766
91574	72.5234	243.134
91575	72.3002	243.493
91576	72.0762	243.843
91577	71.8516	244.184
91578	71.6264	244.517
91579	71.4005	244.841
91580	71.174	245.158
91581	70.947	245.467
91582	70.7194	245.768
91583	70.4912	246.063
91584	70.2626	246.35
91585	70.0334	246.631
91586	69.8038	246.906
91587	69.5737	247.174
91588	69.3431	247.436
91589	69.1121	247.692
91590	68.8807	247.942
91591	68.6489	248.187
91592	68.4167	248.427
91593	68.1841	248.661
91594	67.9512	248.891
91595	67.7178	249.115
91596	67.4842	249.335
91597	67.2502	249.55
91598	67.0159	249.76
91599	66.7812	249.967
91600	66.5463	250.169
91601	66.311	250.367
91602	66.0755	250.561
91603	65.8397	250.751
91604	65.6036	250.937
91605	65.3673	251.12
91606	65.1307	251.299
91607	64.8938	251.475
91608	64.6567	251.647
91609	64.4194	251.816
91610	64.1818	251.982
91611	63.944	252.145
91612	63.706	252.305
91613	63.4678	252.462
91614	63.2294	252.616
91615	62.9908	252.767
91616	62.752	252.915
91617	62.513	253.061
91618	62.2738	253.204
91619	62.0345	253.345
91620	61.7949	253.483
91621	61.5552	253.619
91622	61.3154	253.752
91623	61.0753	253.883
91624	60.8351	254.012
91625	60.5948	254.139
91626	60.3543	254.264
91627	60.1136	254.386
91628	59.8729	254.507
91629	59.6319	254.625
91630	59.3909	254.742
91631	59.1497	254.856
91632	58.9083	254.969
91633	58.6669	255.08
91634	58.4253	255.189
91635	58.1836	255.297
91636	57.9418	255.403
91637	57.6998	255.507
91638	57.4578	255.609
91639	57.2156	255.71
91640	56.9734	255.81
91641	56.731	255.908
91642	56.4885	256.004
91643	56.2459	256.099
91644	56.0033	256.193
91645	55.7605	256.285
91646	55.5176	256.376
91647	55.2746	256.465
91648	55.0316	256.553
91649	54.7885	256.64
91650	54.5452	256.726
91651	54.3019	256.81
91652	54.0585	256.893
91653	53.815	256.975
91654	53.5715	257.056
91655	53.3278	257.135
91656	53.0841	257.214
91657	52.8403	257.291
91658	52.5964	257.368
91659	52.3525	257.443
91660	52.1085	257.517
91661	51.8644	257.591
91662	51.6202	257.663
91663	51.376	257.734
91664	51.1317	257.804
91665	50.8874	257.874
91666	50.643	257.942
91667	50.3985	258.01
91668	50.1539	258.076
91669	49.9094	258.142
91670	49.6647	258.207
91671	49.42	258.271
91672	49.1752	258.334
91673	48.9304	258.397
91674	48.6855	258.458
91675	48.4406	258.519
91676	48.1956	258.579
91677	47.9505	258.638
91678	47.7054	258.697
91679	47.4603	258.755
91680	47.2151	258.812
91681	46.9699	258.868
91682	46.7246	258.924
91683	46.4793	258.979
91684	46.2339	259.033
91685	45.9885	259.087
91686	45.743	259.14
91687	45.4975	259.192
91688	45.2519	259.243
91689	45.0063	259.294
91690	44.7607	259.345
91691	44.515	259.395
91692	44.2693	259.444
91693	44.0235	259.493
91694	43.7777	259.541
91695	43.5319	259.588
91696	43.286	259.635
91697	43.0401	259.681
91698	42.7942	259.727
91699	42.5482	259.772
91700	42.3022	259.817
91701	42.0561	259.861
91702	41.81	259.905
91703	41.5639	259.948
91704	41.3178	259.991
91705	41.0716	260.033
91706	40.8254	260.075
91707	40.5791	260.116
91708	40.3328	260.157
91709	40.0865	260.197
91710	39.8402	260.237
91711	39.5938	260.276
91712	39.3474	260.315
91713	39.101	260.354
91714	38.8545	260.392
91715	38.608	260.429
91716	38.3615	260.467
91717	38.115	260.503
91718	37.8684	260.54
91719	37.6218	260.576
91720	37.3752	260.611
91721	37.1286	260.647
91722	36.8819	260.681
91723	36.6352	260.716
91724	36.3885	260.75
91725	36.1418	260.783
91726	35.895	260.817
91727	35.6482	260.85
91728	35.4014	260.882
91729	35.1546	260.914
91730	34.9077	260.946
91731	34.6609	260.978
91732	34.414	261.009
91733	34.167	261.04
91734	33.9201	261.07
91735	33.6731	261.1
91736	33.4262	261.13
91737	33.1792	261.16
91738	32.9321	261.189
91739	32.6851	261.218
91740	32.438	261.246
91741	32.191	261.274
91742	31.9439	261.302
91743	31.6967	261.33
91744	31.4496	261.357
91745	31.2025	261.384
91746	30.9553	261.411
91747	30.7081	261.438
91748	30.4609	261.464
91749	30.2137	261.49
91750	29.9664	261.515
91751	29.7192	261.541
91752	29.4719	261.566
91753	29.2246	261.59
91754	28.9773	261.615
91755	28.73	261.639
91756	28.4826	261.663
91757	28.2353	261.687
91758	27.9879	261.71
91759	27.7405	261.734
91760	27.4932	261.757
91761	27.2457	261.779
91762	26.9983	261.802
91763	26.7509	261.824
91764	26.5034	261.846
91765	26.256	261.868
91766	26.0085	261.889
91767	25.761	261.911
91768	25.5135	261.932
91769	25.266	261.952
91770	25.0184	261.973
91771	24.7709	261.993
91772	24.5233	262.014
91773	24.2758	262.034
91774	24.0282	262.053
91775	23.7806	262.073
91776	23.533	262.092
91777	23.2854	262.111
91778	23.0377	262.13
91779	22.7901	262.148
91780	22.5424	262.167
91781	22.2948	262.185
91782	22.0471	262.203
91783	21.7994	262.221
91784	21.5517	262.239
91785	21.304	262.256
91786	21.0563	262.273
91787	20.8086	262.29
91788	20.5608	262.307
91789	20.3131	262.324
91790	20.0653	262.34
91791	19.8176	262.356
91792	19.5698	262.372
91793	19.322	262.388
91794	19.0742	262.404
91795	18.8264	262.42
91796	18.5786	262.435
91797	18.3308	262.45
91798	18.083	262.465
91799	17.8351	262.48
91800	17.5873	262.494
91801	17.3394	262.509
91802	17.0916	262.523
91803	16.8437	262.537
91804	16.5958	262.551
91805	16.3479	262.565
91806	16.1	262.578
91807	15.8521	262.592
91808	15.6042	262.605
91809	15.3563	262.618
91810	15.1084	262.631
91811	14.8604	262.644
91812	14.6125	262.656
91813	14.3645	262.669
91814	14.1166	262.681
91815	13.8686	262.693
91816	13.6207	262.705
91817	13.3727	262.717
91818	13.1247	262.729
91819	12.8767	262.74
91820	12.6287	262.751
91821	12.3807	262.762
91822	12.1327	262.773
91823	11.8847	262.784
91824	11.6367	262.795
91825	11.3886	262.806
91826	11.1406	262.816
91827	10.8926	262.826
91828	10.6445	262.836
91829	10.3965	262.846
91830	10.1484	262.856
91831	9.90037	262.866
91832	9.65231	262.875
91833	9.40424	262.885
91834	9.15616	262.894
91835	8.90808	262.903
91836	8.65999	262.912
91837	8.4119	262.921
91838	8.16381	262.929
91839	7.91571	262.938
91840	7.6676	262.946
91841	7.4195	262.954
91842	7.17138	262.962
91843	6.92326	262.97
91844	6.67514	262.978
91845	6.42701	262.986
91846	6.17888	262.993
91847	5.93075	263.001
91848	5.68261	263.008
91849	5.43447	263.015
91850	5.18632	263.022
91851	4.93817	263.029
91852	4.69001	263.036
91853	4.44186	263.042
91854	4.19369	263.049
91855	3.94553	263.055
91856	3.69736	263.061
91857	3.44919	263.067
91858	3.20101	263.073
91859	2.95283	263.079
91860	2.70465	263.085
91861	2.45647	263.09
91862	2.20828	263.096
91863	1.96009	263.101
91864	1.7119	263.106
91865	1.4637	263.111
91866	1.2155	263.116
91867	0.967299	263.12
91868	0.719095	263.125
91869	0.470888	263.13
91870	0.222679	263.134
91871	-0.0255331	263.138
91872	-0.273747	263.142
91873	-0.521963	263.146
91874	-0.770181	263.15
91875	-1.0184	263.154
91876	-1.26662	263.157
91877	-1.51485	263.161
91878	-1.76308	263.164
91879	-2.0113	263.167
91880	-2.25953	263.17
91881	-2.50776	263.173
91882	-2.756	263.176
91883	-3.00423	263.179
91884	-3.25247	263.181
91885	-3.50071	263.184
91886	-3.74895	263.186
91887	-3.99719	263.188
91888	-4.24543	263.19
91889	-4.49367	263.192
91890	-4.74191	263.194
91891	-4.99016	263.195
91892	-5.2384	263.197
91893	-5.48665	263.198
91894	-5.7349	263.199
91895	-5.98315	263.201
91896	-6.2314	263.202
91897	-6.47965	263.202
91898	-6.7279	263.203
91899	-6.97615	263.204
91900	-7.2244	263.204
91901	-7.47265	263.205
91902	-7.7209	263.205
91903	-7.96915	263.205
91904	-8.2174	263.205
91905	-8.46566	263.205
91906	-8.71391	263.204
91907	-8.96216	263.204
91908	-9.21041	263.203
91909	-9.45866	263.203
91910	-9.70691	263.202
91911	-9.95517	263.201
91912	-10.2034	263.2
91913	-10.4517	263.199
91914	-10.6999	263.197
91915	-10.9482	263.196
91916	-11.1964	263.194
91917	-11.4447	263.192
91918	-11.6929	263.19
91919	-11.9412	263.188
91920	-12.1894	263.186
91921	-12.4376	263.184
91922	-12.6859	263.181
91923	-12.9341	263.179
91924	-13.1824	263.176
91925	-13.4306	263.173
91926	-13.6788	263.17
91927	-13.9271	263.167
91928	-14.1753	263.164
91929	-14.4236	263.16
91930	-14.6718	263.157
91931	-14.92	263.153
91932	-15.1682	263.149
91933	-15.4165	263.145
91934	-15.6647	263.141
91935	-15.9129	263.137
91936	-16.1611	263.132
91937	-16.4094	263.128
91938	-16.6576	263.123
91939	-16.9058	263.118
91940	-17.154	263.113
91941	-17.4022	263.108
91942	-17.6504	263.103
91943	-17.8986	263.097
91944	-18.1468	263.092
91945	-18.395	263.086
91946	-18.6432	263.08
91947	-18.8914	263.074
91948	-19.1396	263.068
91949	-19.3878	263.061
91950	-19.636	263.055
91951	-19.8841	263.048
91952	-20.1323	263.041
91953	-20.3805	263.034
91954	-20.6286	263.027
91955	-20.8768	263.02
91956	-21.125	263.012
91957	-21.3731	263.005
91958	-21.6213	262.997
91959	-21.8694	262.989
91960	-22.1176	262.981
91961	-22.3657	262.973
91962	-22.6139	262.964
91963	-22.862	262.955
91964	-23.1101	262.947
91965	-23.3582	262.938
91966	-23.6064	262.928
91967	-23.8545	262.919
91968	-24.1026	262.909
91969	-24.3507	262.9
91970	-24.5988	262.89
91971	-24.8469	262.88
91972	-25.095	262.87
91973	-25.343	262.859
91974	-25.5911	262.848
91975	-25.8392	262.838
91976	-26.0872	262.827
91977	-26.3353	262.815
91978	-26.5834	262.804
91979	-26.8314	262.793
91980	-27.0794	262.781
91981	-27.3275	262.769
91982	-27.5755	262.757
91983	-27.8235	262.744
91984	-28.0715	262.732
91985	-28.3196	262.719
91986	-28.5676	262.706
91987	-28.8155	262.693
91988	-29.0635	262.679
91989	-29.3115	262.666
91990	-29.5595	262.652
91991	-29.8075	262.638
91992	-30.0554	262.624
91993	-30.3034	262.609
91994	-30.5513	262.594
91995	-30.7992	262.579
91996	-31.0472	262.564
91997	-31.2951	262.549
91998	-31.543	262.533
91999	-31.7909	262.517
92000	-32.0388	262.501
92001	-32.2866	262.485
92002	-32.5345	262.468
92003	-32.7824	262.452
92004	-33.0302	262.435
92005	-33.2781	262.417
92006	-33.5259	262.4
92007	-33.7737	262.382
92008	-34.0215	262.364
92009	-34.2693	262.345
92010	-34.5171	262.327
92011	-34.7649	262.308
92012	-35.0127	262.289
92013	-35.2604	262.269
92014	-35.5082	262.25
92015	-35.7559	262.23
92016	-36.0037	262.209
92017	-36.2514	262.189
92018	-36.4991	262.168
92019	-36.7468	262.147
92020	-36.9944	262.125
92021	-37.2421	262.104
92022	-37.4897	262.082
92023	-37.7374	262.059
92024	-37.985	262.037
92025	-38.2326	262.014
92026	-38.4802	261.99
92027	-38.7278	261.967
92028	-38.9754	261.943
92029	-39.2229	261.919
92030	-39.4705	261.894
92031	-39.718	261.869
92032	-39.9655	261.844
92033	-40.213	261.818
92034	-40.4605	261.792
92035	-40.7079	261.766
92036	-40.9554	261.739
92037	-41.2028	261.712
92038	-41.4502	261.684
92039	-41.6976	261.656
92040	-41.945	261.628
92041	-42.1923	261.599
92042	-42.4397	261.57
92043	-42.687	261.541
92044	-42.9343	261.511
92045	-43.1816	261.481
92046	-43.4288	261.45
92047	-43.6761	261.419
92048	-43.9233	261.387
92049	-44.1705	261.355
92050	-44.4177	261.323
92051	-44.6648	261.29
92052	-44.912	261.257
92053	-45.1591	261.223
92054	-45.4062	261.188
92055	-45.6533	261.154
92056	-45.9003	261.118
92057	-46.1473	261.082
92058	-46.3943	261.046
92059	-46.6413	261.009
92060	-46.8883	260.972
92061	-47.1352	260.934
92062	-47.3821	260.896
92063	-47.629	260.857
92064	-47.8758	260.817
92065	-48.1226	260.777
92066	-48.3694	260.736
92067	-48.6162	260.695
92068	-48.8629	260.653
92069	-49.1096	260.611
92070	-49.3563	260.568
92071	-49.603	260.524
92072	-49.8496	260.479
92073	-50.0961	260.434
92074	-50.3427	260.389
92075	-50.5892	260.342
92076	-50.8357	260.295
92077	-51.0821	260.247
92078	-51.3285	260.199
92079	-51.5749	260.15
92080	-51.8213	260.1
92081	-52.0676	260.049
92082	-52.3138	259.997
92083	-52.56	259.945
92084	-52.8062	259.892
92085	-53.0524	259.838
92086	-53.2985	259.783
92087	-53.5445	259.728
92088	-53.7905	259.671
92089	-54.0365	259.614
92090	-54.2824	259.556
92091	-54.5283	259.497
92092	-54.7741	259.437
92093	-55.0199	259.376
92094	-55.2657	259.314
92095	-55.5114	259.251
92096	-55.757	259.187
92097	-56.0026	259.122
92098	-56.2481	259.055
92099	-56.4936	258.988
92100	-56.739	258.92
92101	-56.9843	258.85
92102	-57.2296	258.78
92103	-57.4749	258.708
92104	-57.7201	258.635
92105	-57.9652	258.561
92106	-58.2102	258.485
92107	-58.4552	258.409
92108	-58.7001	258.33
92109	-58.945	258.251
92110	-59.1898	258.17
92111	-59.4345	258.088
92112	-59.6791	258.004
92113	-59.9237	257.919
92114	-60.1681	257.832
92115	-60.4125	257.744
92116	-60.6569	257.654
92117	-60.9011	257.563
92118	-61.1452	257.47
92119	-61.3893	257.375
92120	-61.6333	257.278
92121	-61.8771	257.18
92122	-62.1209	257.079
92123	-62.3646	256.977
92124	-62.6082	256.873
92125	-62.8517	256.767
92126	-63.095	256.659
92127	-63.3383	256.549
92128	-63.5814	256.436
92129	-63.8245	256.321
92130	-64.0674	256.204
92131	-64.3102	256.085
92132	-64.5528	255.963
92133	-64.7954	255.839
92134	-65.0378	255.713
92135	-65.28	255.583
92136	-65.5222	255.451
92137	-65.7641	255.316
92138	-66.006	255.179
92139	-66.2476	255.038
92140	-66.4891	254.894
92141	-66.7305	254.748
92142	-66.9717	254.598
92143	-67.2127	254.444
92144	-67.4535	254.287
92145	-67.6941	254.127
92146	-67.9346	253.963
92147	-68.1748	253.795
92148	-68.4149	253.624
92149	-68.6547	253.448
92150	-68.8943	253.269
92151	-69.1337	253.085
92152	-69.3728	252.896
92153	-69.6117	252.703
92154	-69.8504	252.505
92155	-70.0888	252.303
92156	-70.3269	252.095
92157	-70.5647	251.882
92158	-70.8023	251.663
92159	-71.0395	251.439
92160	-71.2764	251.21
298080	-64.1667	322.568
298081	-64.318	322.984
298082	-64.4679	323.405
298083	-64.6163	323.831
298084	-64.7632	324.263
298085	-64.9085	324.7
298086	-65.0523	325.142
298087	-65.1945	325.589
298088	-65.3351	326.041
298089	-65.474	326.499
298090	-65.6113	326.962
298091	-65.7468	327.431
298092	-65.8806	327.905
298093	-66.0127	328.384
298094	-66.143	328.869
298095	-66.2714	329.359
298096	-66.398	329.855
298097	-66.5227	330.356
298098	-66.6455	330.863
298099	-66.7664	331.375
298100	-66.8853	331.892
298101	-67.0022	332.415
298102	-67.1171	332.944
298103	-67.2299	333.478
298104	-67.3406	334.017
298105	-67.4492	334.561
298106	-67.5556	335.111
298107	-67.6599	335.667
298108	-67.7619	336.227
298109	-67.8617	336.793
298110	-67.9592	337.364
298111	-68.0544	337.94
298112	-68.1472	338.521
298113	-68.2377	339.108
298114	-68.3258	339.699
298115	-68.4114	340.295
298116	-68.4946	340.896
298117	-68.5753	341.501
298118	-68.6535	342.112
298119	-68.7292	342.726
298120	-68.8023	343.345
298121	-68.8728	343.969
298122	-68.9406	344.596
298123	-69.0059	345.228
298124	-69.0684	345.863
298125	-69.1283	346.503
298126	-69.1854	347.146
298127	-69.2398	347.793
298128	-69.2914	348.442
298129	-69.3403	349.096
298130	-69.3863	349.752
298131	-69.4295	350.411
298132	-69.4699	351.073
298133	-69.5074	351.738
298134	-69.542	352.404
298135	-69.5738	353.074
298136	-69.6026	353.745
298137	-69.6286	354.418
298138	-69.6516	355.092
298139	-69.6716	355.768
298140	-69.6888	356.446
298141	-69.703	357.124
298142	-69.7142	357.803
298143	-69.7224	358.483
298144	-69.7277	359.164
298145	-69.73	359.844
298146	-69.7294	0.524959
298147	-69.7258	1.20554
298148	-69.7192	1.88577
298149	-69.7096	2.56546
298150	-69.6971	3.24439
298151	-69.6817	3.92236
298152	-69.6633	4.59919
298153	-69.6419	5.27466
298154	-69.6176	5.94859
298155	-69.5904	6.62079
298156	-69.5603	7.29107
298157	-69.5273	7.95924
298158	-69.4914	8.62511
298159	-69.4526	9.28852
298160	-69.411	9.94928
298161	-69.3666	10.6072
298162	-69.3193	11.2622
298163	-69.2692	11.914
298164	-69.2164	12.5626
298165	-69.1608	13.2077
298166	-69.1025	13.8492
298167	-69.0414	14.487
298168	-68.9777	15.1209
298169	-68.9113	15.7508
298170	-68.8423	16.3766
298171	-68.7707	16.9981
298172	-68.6965	17.6153
298173	-68.6197	18.2281
298174	-68.5404	18.8363
298175	-68.4586	19.4398
298176	-68.3743	20.0386
298177	-68.2876	20.6326
298178	-68.1985	21.2217
298179	-68.1069	21.8057
298180	-68.0131	22.3848
298181	-67.9169	22.9588
298182	-67.8184	23.5275
298183	-67.7176	24.0911
298184	-67.6146	24.6494
298185	-67.5094	25.2025
298186	-67.402	25.7502
298187	-67.2925	26.2925
298188	-67.1808	26.8294
298189	-67.0671	27.3609
298190	-66.9513	27.887
298191	-66.8336	28.4077
298192	-66.7138	28.9229
298193	-66.5921	29.4326
298194	-66.4684	29.9369
298195	-66.3428	30.4357
298196	-66.2154	30.929
298197	-66.0862	31.4169
298198	-65.9551	31.8994
298199	-65.8222	32.3764
298200	-65.6877	32.8481
298201	-65.5513	33.3143
298202	-65.4133	33.7752
298203	-65.2737	34.2308
298204	-65.1324	34.6811
298205	-64.9895	35.126
298206	-64.845	35.5658
298207	-64.6989	36.0003
298208	-64.5514	36.4296
298209	-64.4023	36.8538
298210	-64.2518	37.2729
298211	-64.0998	37.6869
298212	-63.9464	38.0959
298213	-63.7916	38.4999
298214	-63.6354	38.899
298215	-63.4779	39.2932
298216	-63.3191	39.6826
298217	-63.1589	40.0671
298218	-62.9975	40.4469
298219	-62.8348	40.822
298220	-62.6709	41.1924
298221	-62.5058	41.5583
298222	-62.3395	41.9195
298223	-62.172	42.2763
298224	-62.0034	42.6286
298225	-61.8337	42.9765
298226	-61.6628	43.32
298227	-61.4909	43.6592
298228	-61.3179	43.9942
298229	-61.1439	44.3249
298230	-60.9688	44.6515
298231	-60.7927	44.974
298232	-60.6157	45.2924
298233	-60.4376	45.6068
298234	-60.2586	45.9173
298235	-60.0787	46.2239
298236	-59.8979	46.5266
298237	-59.7161	46.8255
298238	-59.5335	47.1206
298239	-59.35	47.4121
298240	-59.1656	47.6998
298241	-58.9804	47.984
298242	-58.7944	48.2646
298243	-58.6075	48.5417
298244	-58.4199	48.8153
298245	-58.2315	49.0855
298246	-58.0423	49.3523
298247	-57.8524	49.6158
298248	-57.6617	49.876
298249	-57.4703	50.133
298250	-57.2782	50.3867
298251	-57.0853	50.6373
298252	-56.8918	50.8849
298253	-56.6976	51.1293
298254	-56.5028	51.3707
298255	-56.3072	51.6092
298256	-56.1111	51.8446
298257	-55.9143	52.0772
298258	-55.7169	52.307
298259	-55.5189	52.5339
298260	-55.3203	52.758
298261	-55.1211	52.9794
298262	-54.9213	53.1981
298263	-54.7209	53.4142
298264	-54.52	53.6276
298265	-54.3186	53.8384
298266	-54.1166	54.0466
298267	-53.914	54.2524
298268	-53.711	54.4556
298269	-53.5074	54.6564
298270	-53.3033	54.8548
298271	-53.0988	55.0508
298272	-52.8937	55.2445
298273	-52.6882	55.4358
298274	-52.4822	55.6249
298275	-52.2757	55.8117
298276	-52.0688	55.9963
298277	-51.8614	56.1787
298278	-51.6536	56.3589
298279	-51.4453	56.5371
298280	-51.2367	56.7131
298281	-51.0276	56.887
298282	-50.8181	57.0589
298283	-50.6082	57.2288
298284	-50.3979	57.3967
298285	-50.1871	57.5626
298286	-49.9761	57.7266
298287	-49.7646	57.8887
298288	-49.5527	58.0489
298289	-49.3405	58.2073
298290	-49.128	58.3638
298291	-48.915	58.5185
298292	-48.7017	58.6715
298293	-48.4881	58.8227
298294	-48.2741	58.9721
298295	-48.0598	59.1199
298296	-47.8452	59.2659
298297	-47.6302	59.4103
298298	-47.415	59.553
298299	-47.1994	59.6942
298300	-46.9835	59.8337
298301	-46.7673	59.9716
298302	-46.5508	60.108
298303	-46.334	60.2429
298304	-46.1169	60.3762
298305	-45.8995	60.508
298306	-45.6818	60.6384
298307	-45.4639	60.7673
298308	-45.2457	60.8947
298309	-45.0272	61.0207
298310	-44.8085	61.1454
298311	-44.5895	61.2686
298312	-44.3702	61.3905
298313	-44.1507	61.511
298314	-43.9309	61.6302
298315	-43.7109	61.748
298316	-43.4907	61.8646
298317	-43.2702	61.9799
298318	-43.0494	62.0939
298319	-42.8285	62.2066
298320	-42.6073	62.3182
298321	-42.3859	62.4285
298322	-42.1642	62.5375
298323	-41.9424	62.6454
298324	-41.7203	62.7522
298325	-41.498	62.8577
298326	-41.2755	62.9621
298327	-41.0528	63.0654
298328	-40.8299	63.1675
298329	-40.6068	63.2685
298330	-40.3835	63.3685
298331	-40.16	63.4673
298332	-39.9363	63.5651
298333	-39.7125	63.6619
298334	-39.4884	63.7575
298335	-39.2641	63.8522
298336	-39.0397	63.9458
298337	-38.8151	64.0384
298338	-38.5903	64.13
298339	-38.3654	64.2207
298340	-38.1402	64.3103
298341	-37.9149	64.399
298342	-37.6895	64.4868
298343	-37.4638	64.5736
298344	-37.238	64.6594
298345	-37.0121	64.7444
298346	-36.786	64.8284
298347	-36.5597	64.9115
298348	-36.3333	64.9938
298349	-36.1067	65.0751
298350	-35.88	65.1556
298351	-35.6532	65.2352
298352	-35.4261	65.314
298353	-35.199	65.3919
298354	-34.9717	65.469
298355	-34.7443	65.5453
298356	-34.5167	65.6207
298357	-34.289	65.6953
298358	-34.0611	65.7692
298359	-33.8332	65.8422
298360	-33.6051	65.9145
298361	-33.3768	65.9859
298362	-33.1485	66.0566
298363	-32.92	66.1266
298364	-32.6914	66.1958
298365	-32.4627	66.2642
298366	-32.2338	66.332
298367	-32.0049	66.3989
298368	-31.7758	66.4652
298369	-31.5466	66.5307
298370	-31.3173	66.5956
298371	-31.0878	66.6597
298372	-30.8583	66.7232
298373	-30.6287	66.7859
298374	-30.3989	66.848
298375	-30.1691	66.9094
298376	-29.9391	66.9701
298377	-29.709	67.0301
298378	-29.4789	67.0895
298379	-29.2486	67.1483
298380	-29.0182	67.2064
298381	-28.7878	67.2639
298382	-28.5572	67.3207
298383	-28.3266	67.3769
298384	-28.0958	67.4325
298385	-27.865	67.4875
298386	-27.634	67.5419
298387	-27.403	67.5956
298388	-27.1719	67.6488
298389	-26.9407	67.7013
298390	-26.7094	67.7533
298391	-26.478	67.8047
298392	-26.2466	67.8555
298393	-26.015	67.9058
298394	-25.7834	67.9554
298395	-25.5517	68.0045
298396	-25.3199	68.0531
298397	-25.0881	68.1011
298398	-24.8561	68.1485
298399	-24.6241	68.1954
298400	-24.392	68.2417
298401	-24.1598	68.2876
298402	-23.9276	68.3328
298403	-23.6953	68.3776
298404	-23.4629	68.4218
298405	-23.2304	68.4655
298406	-22.9979	68.5087
298407	-22.7653	68.5514
298408	-22.5326	68.5935
298409	-22.2999	68.6352
298410	-22.0671	68.6764
298411	-21.8342	68.717
298412	-21.6013	68.7572
298413	-21.3683	68.7969
298414	-21.1353	68.8361
298415	-20.9021	68.8748
298416	-20.669	68.913
298417	-20.4357	68.9507
298418	-20.2024	68.988
298419	-19.9691	69.0248
298420	-19.7357	69.0612
298421	-19.5022	69.097
298422	-19.2687	69.1324
298423	-19.0351	69.1674
298424	-18.8015	69.2019
298425	-18.5678	69.236
298426	-18.334	69.2696
298427	-18.1003	69.3027
298428	-17.8664	69.3354
298429	-17.6325	69.3677
298430	-17.3986	69.3995
298431	-17.1646	69.4309
298432	-16.9306	69.4619
298433	-16.6965	69.4924
298434	-16.4623	69.5225
298435	-16.2282	69.5522
298436	-15.9939	69.5815
298437	-15.7597	69.6103
298438	-15.5254	69.6388
298439	-15.291	69.6668
298440	-15.0566	69.6944
298441	-14.8222	69.7215
298442	-14.5877	69.7483
298443	-14.3532	69.7747
298444	-14.1186	69.8007
298445	-13.884	69.8262
298446	-13.6494	69.8514
298447	-13.4147	69.8761
298448	-13.18	69.9005
298449	-12.9452	69.9245
298450	-12.7105	69.9481
298451	-12.4756	69.9713
298452	-12.2408	69.9941
298453	-12.0059	70.0165
298454	-11.771	70.0385
298455	-11.536	70.0601
298456	-11.301	70.0814
298457	-11.066	70.1023
298458	-10.831	70.1228
298459	-10.5959	70.1429
298460	-10.3608	70.1627
298461	-10.1256	70.182
298462	-9.89048	70.201
298463	-9.65528	70.2197
298464	-9.42006	70.2379
298465	-9.18481	70.2558
298466	-8.94953	70.2733
298467	-8.71423	70.2905
298468	-8.47891	70.3073
298469	-8.24355	70.3237
298470	-8.00818	70.3398
298471	-7.77278	70.3555
298472	-7.53736	70.3708
298473	-7.30191	70.3858
298474	-7.06645	70.4004
298475	-6.83096	70.4147
298476	-6.59545	70.4286
298477	-6.35992	70.4422
298478	-6.12438	70.4554
298479	-5.88881	70.4682
298480	-5.65322	70.4807
298481	-5.41762	70.4928
298482	-5.18199	70.5046
298483	-4.94636	70.5161
298484	-4.7107	70.5272
298485	-4.47503	70.5379
298486	-4.23934	70.5483
298487	-4.00364	70.5583
298488	-3.76792	70.568
298489	-3.53219	70.5774
298490	-3.29644	70.5864
298491	-3.06069	70.5951
298492	-2.82491	70.6034
298493	-2.58913	70.6114
298494	-2.35334	70.619
298495	-2.11753	70.6263
298496	-1.88172	70.6332
298497	-1.64589	70.6398
298498	-1.41006	70.6461
298499	-1.17421	70.652
298500	-0.938359	70.6576
298501	-0.702498	70.6628
298502	-0.466629	70.6677
298503	-0.230754	70.6723
298504	0.00512801	70.6765
298505	0.241016	70.6804
298506	0.47691	70.6839
298507	0.712809	70.6871
298508	0.948712	70.6899
298509	1.18462	70.6924
298510	1.42053	70.6946
298511	1.65644	70.6964
298512	1.89236	70.6979
298513	2.12828	70.6991
298514	2.3642	70.6999
298515	2.60012	70.7004
298516	2.83604	70.7005
298517	3.07197	70.7003
298518	3.30789	70.6997
298519	3.54381	70.6988
298520	3.77973	70.6976
298521	4.01565	70.696
298522	4.25157	70.6941
298523	4.48748	70.6918
298524	4.72339	70.6892
298525	4.95929	70.6863
298526	5.1952	70.683
298527	5.43109	70.6793
298528	5.66699	70.6754
298529	5.90287	70.671
298530	6.13875	70.6663
298531	6.37462	70.6613
298532	6.61049	70.656
298533	6.84635	70.6502
298534	7.0822	70.6442
298535	7.31804	70.6377
298536	7.55387	70.631
298537	7.78969	70.6239
298538	8.0255	70.6164
298539	8.2613	70.6086
298540	8.49709	70.6004
298541	8.73287	70.5919
298542	8.96864	70.583
298543	9.20439	70.5737
298544	9.44013	70.5641
298545	9.67585	70.5542
298546	9.91156	70.5439
298547	10.1473	70.5332
298548	10.3829	70.5222
298549	10.6186	70.5108
298550	10.8542	70.499
298551	11.0899	70.4869
298552	11.3255	70.4744
298553	11.5611	70.4615
298554	11.7967	70.4483
298555	12.0322	70.4347
298556	12.2677	70.4207
298557	12.5033	70.4063
298558	12.7388	70.3916
298559	12.9742	70.3765
298560	13.2097	70.361
298561	13.4451	70.3452
298562	13.6805	70.329
298563	13.9159	70.3123
298564	14.1513	70.2953
298565	14.3866	70.2779
298566	14.6219	70.2602
298567	14.8572	70.242
298568	15.0924	70.2234
298569	15.3276	70.2045
298570	15.5628	70.1851
298571	15.798	70.1654
298572	16.0331	70.1453
298573	16.2683	70.1247
298574	16.5033	70.1038
298575	16.7384	70.0824
298576	16.9734	70.0607
298577	17.2084	70.0385
298578	17.4433	70.0159
298579	17.6782	69.9929
298580	17.9131	69.9695
298581	18.148	69.9457
298582	18.3828	69.9214
298583	18.6176	69.8968
298584	18.8523	69.8717
298585	19.087	69.8461
298586	19.3217	69.8202
298587	19.5563	69.7938
298588	19.7909	69.767
298589	20.0254	69.7397
298590	20.2599	69.712
298591	20.4944	69.6838
298592	20.7288	69.6552
298593	20.9632	69.6262
298594	21.1975	69.5967
298595	21.4318	69.5667
298596	21.666	69.5363
298597	21.9002	69.5054
298598	22.1343	69.474
298599	22.3684	69.4422
298600	22.6025	69.4099
298601	22.8365	69.3771
298602	23.0704	69.3439
298603	23.3043	69.3101
298604	23.5382	69.2759
298605	23.772	69.2412
298606	24.0057	69.206
298607	24.2394	69.1703
298608	24.473	69.1341
298609	24.7066	69.0974
298610	24.9401	69.0601
298611	25.1735	69.0224
298612	25.4069	68.9841
298613	25.6403	68.9454
298614	25.8735	68.9061
298615	26.1068	68.8662
298616	26.3399	68.8259
298617	26.573	68.785
298618	26.806	68.7435
298619	27.039	68.7015
298620	27.2719	68.659
298621	27.5047	68.6159
298622	27.7374	68.5722
298623	27.9701	68.5279
298624	28.2027	68.4831
298625	28.4353	68.4378
298626	28.6677	68.3918
298627	28.9001	68.3452
298628	29.1324	68.2981
298629	29.3647	68.2503
298630	29.5969	68.202
298631	29.8289	68.153
298632	30.0609	68.1035
298633	30.2929	68.0533
298634	30.5247	68.0024
298635	30.7565	67.951
298636	30.9882	67.8989
298637	31.2197	67.8462
298638	31.4512	67.7928
298639	31.6827	67.7387
298640	31.914	67.684
298641	32.1452	67.6287
298642	32.3764	67.5726
298643	32.6074	67.5159
298644	32.8384	67.4585
298645	33.0692	67.4003
298646	33.3	67.3415
298647	33.5306	67.282
298648	33.7612	67.2217
298649	33.9917	67.1608
298650	34.222	67.099
298651	34.4523	67.0366
298652	34.6824	66.9734
298653	34.9124	66.9094
298654	35.1424	66.8447
298655	35.3722	66.7792
298656	35.6019	66.7129
298657	35.8315	66.6459
298658	36.0609	66.578
298659	36.2903	66.5093
298660	36.5195	66.4398
298661	36.7486	66.3695
298662	36.9776	66.2983
298663	37.2065	66.2264
298664	37.4352	66.1535
298665	37.6638	66.0798
298666	37.8923	66.0052
298667	38.1206	65.9297
298668	38.3488	65.8534
298669	38.5769	65.7761
298670	38.8048	65.6979
298671	39.0326	65.6188
298672	39.2603	65.5388
298673	39.4878	65.4578
298674	39.7151	65.3759
298675	39.9423	65.293
298676	40.1694	65.2091
298677	40.3963	65.1242
298678	40.623	65.0383
298679	40.8496	64.9514
298680	41.076	64.8634
298681	41.3023	64.7745
298682	41.5284	64.6844
298683	41.7543	64.5933
298684	41.9801	64.5011
298685	42.2057	64.4079
298686	42.4311	64.3135
298687	42.6563	64.218
298688	42.8813	64.1213
298689	43.1062	64.0235
298690	43.3309	63.9246
298691	43.5553	63.8244
298692	43.7796	63.7231
298693	44.0037	63.6205
298694	44.2276	63.5167
298695	44.4513	63.4117
298696	44.6748	63.3054
298697	44.898	63.1978
298698	45.1211	63.089
298699	45.344	62.9788
298700	45.5666	62.8673
298701	45.789	62.7545
298702	46.0112	62.6403
298703	46.2331	62.5247
298704	46.4548	62.4077
298705	46.6763	62.2892
298706	46.8975	62.1694
298707	47.1185	62.0481
298708	47.3393	61.9253
298709	47.5597	61.8009
298710	47.78	61.6751
298711	47.9999	61.5477
298712	48.2196	61.4188
298713	48.4391	61.2883
298714	48.6582	61.1561
298715	48.8771	61.0224
298716	49.0957	60.8869
298717	49.314	60.7498
298718	49.532	60.611
298719	49.7497	60.4705
298720	49.9671	60.3282
298721	50.1842	60.1841
298722	50.401	60.0382
298723	50.6175	59.8905
298724	50.8336	59.741
298725	51.0494	59.5895
298726	51.2649	59.4361
298727	51.48	59.2808
298728	51.6948	59.1235
298729	51.9093	58.9643
298730	52.1233	58.8029
298731	52.337	58.6396
298732	52.5504	58.4741
298733	52.7633	58.3065
298734	52.9759	58.1368
298735	53.1881	57.9648
298736	53.3998	57.7907
298737	53.6112	57.6143
298738	53.8222	57.4356
298739	54.0327	57.2546
298740	54.2428	57.0712
298741	54.4525	56.8854
298742	54.6617	56.6972
298743	54.8704	56.5065
298744	55.0787	56.3134
298745	55.2866	56.1176
298746	55.4939	55.9193
298747	55.7008	55.7184
298748	55.9072	55.5148
298749	56.113	55.3084
298750	56.3184	55.0994
298751	56.5232	54.8875
298752	56.7275	54.6728
298753	56.9313	54.4552
298754	57.1345	54.2347
298755	57.3371	54.0112
298756	57.5391	53.7847
298757	57.7406	53.5552
298758	57.9415	53.3225
298759	58.1417	53.0866
298760	58.3414	52.8476
298761	58.5404	52.6053
298762	58.7387	52.3596
298763	58.9364	52.1106
298764	59.1334	51.8582
298765	59.3298	51.6023
298766	59.5254	51.3429
298767	59.7204	51.0799
298768	59.9146	50.8132
298769	60.108	50.5429
298770	60.3007	50.2688
298771	60.4927	49.9909
298772	60.6839	49.7092
298773	60.8742	49.4235
298774	61.0638	49.1338
298775	61.2525	48.8401
298776	61.4403	48.5423
298777	61.6273	48.2403
298778	61.8135	47.9341
298779	61.9987	47.6236
298780	62.183	47.3087
298781	62.3663	46.9894
298782	62.5487	46.6656
298783	62.7302	46.3373
298784	62.9106	46.0043
298785	63.09	45.6666
298786	63.2684	45.3242
298787	63.4457	44.977
298788	63.622	44.6249
298789	63.7971	44.2678
298790	63.9711	43.9057
298791	64.144	43.5385
298792	64.3157	43.1662
298793	64.4863	42.7886
298794	64.6556	42.4058
298795	64.8236	42.0175
298796	64.9904	41.6239
298797	65.1559	41.2247
298798	65.3201	40.82
298799	65.4829	40.4097
298800	65.6444	39.9937
298801	65.8045	39.5719
298802	65.9631	39.1443
298803	66.1203	38.7108
298804	66.276	38.2714
298805	66.4302	37.826
298806	66.5828	37.3745
298807	66.7339	36.917
298808	66.8834	36.4532
298809	67.0312	35.9832
298810	67.1773	35.507
298811	67.3218	35.0244
298812	67.4645	34.5355
298813	67.6055	34.0402
298814	67.7446	33.5384
298815	67.8819	33.0301
298816	68.0174	32.5154
298817	68.1509	31.9941
298818	68.2825	31.4662
298819	68.4121	30.9317
298820	68.5397	30.3906
298821	68.6653	29.8429
298822	68.7888	29.2886
298823	68.9101	28.7277
298824	69.0293	28.1601
298825	69.1463	27.5859
298826	69.2611	27.0051
298827	69.3736	26.4178
298828	69.4838	25.8238
298829	69.5917	25.2234
298830	69.6971	24.6165
298831	69.8002	24.0031
298832	69.9008	23.3834
298833	69.9989	22.7573
298834	70.0945	22.125
298835	70.1875	21.4865
298836	70.2779	20.8419
298837	70.3656	20.1914
298838	70.4507	19.5349
298839	70.5331	18.8726
298840	70.6127	18.2047
298841	70.6896	17.5312
298842	70.7636	16.8523
298843	70.8348	16.1682
298844	70.9031	15.4789
298845	70.9685	14.7847
298846	71.031	14.0856
298847	71.0905	13.382
298848	71.147	12.6739
298849	71.2005	11.9616
298850	71.2509	11.2453
298851	71.2983	10.5251
298852	71.3425	9.80134
298853	71.3837	9.07415
298854	71.4217	8.3438
298855	71.4565	7.61051
298856	71.4882	6.87453
298857	71.5167	6.1361
298858	71.542	5.39547
298859	71.564	4.65289
298860	71.5828	3.90864
298861	71.5984	3.16296
298862	71.6107	2.41612
298863	71.6198	1.6684
298864	71.6256	0.920056
298865	71.6281	0.171365
298866	71.6274	359.423
298867	71.6234	358.674
298868	71.6162	357.926
298869	71.6057	357.179
298870	71.5919	356.432
298871	71.5749	355.687
298872	71.5546	354.944
298873	71.5311	354.202
298874	71.5044	353.462
298875	71.4745	352.725
298876	71.4414	351.99
298877	71.4052	351.258
298878	71.3658	350.529
298879	71.3232	349.803
298880	71.2776	349.081
298881	71.2289	348.363
298882	71.1771	347.648
298883	71.1222	346.937
298884	71.0644	346.231
298885	71.0036	345.53
298886	70.9398	344.833
298887	70.8731	344.141
298888	70.8035	343.454
298889	70.731	342.772
298890	70.6557	342.095
298891	70.5776	341.424
298892	70.4968	340.759
298893	70.4132	340.099
298894	70.3269	339.445
298895	70.238	338.797
298896	70.1464	338.155
298897	70.0522	337.519
298898	69.9555	336.89
298899	69.8563	336.267
298900	69.7546	335.65
298901	69.6505	335.039
298902	69.5439	334.435
298903	69.435	333.837
298904	69.3238	333.246
298905	69.2103	332.662
298906	69.0945	332.084
298907	68.9765	331.513
298908	68.8563	330.948
298909	68.734	330.39
298910	68.6096	329.838
298911	68.4831	329.294
298912	68.3546	328.756
298913	68.2241	328.224
298914	68.0916	327.699
298915	67.9572	327.18
298916	67.8209	326.669
298917	67.6827	326.163
298918	67.5428	325.664
298919	67.401	325.172
298920	67.2575	324.686
298921	67.1123	324.206
298922	66.9654	323.732
298923	66.8168	323.265
298924	66.6666	322.804
298925	66.5148	322.349
298926	66.3615	321.9
298927	66.2066	321.457
298928	66.0502	321.021
298929	65.8924	320.59
298930	65.7331	320.165
298931	65.5724	319.745
298932	65.4103	319.332
298933	65.2468	318.924
298934	65.082	318.522
298935	64.9159	318.125
298936	64.7485	317.734
298937	64.5799	317.348
298938	64.41	316.967
298939	64.2389	316.592
298940	64.0667	316.222
298941	63.8933	315.857
298942	63.7187	315.497
298943	63.5431	315.142
298944	63.3663	314.792
298945	63.1885	314.447
298946	63.0096	314.107
298947	62.8297	313.771
298948	62.6488	313.44
298949	62.4669	313.114
298950	62.2841	312.792
298951	62.1003	312.474
298952	61.9155	312.161
298953	61.7299	311.853
298954	61.5433	311.548
298955	61.3559	311.248
298956	61.1677	310.952
298957	60.9785	310.66
298958	60.7886	310.372
298959	60.5979	310.088
298960	60.4063	309.808
298961	60.214	309.532
298962	60.0209	309.259
298963	59.8271	308.991
298964	59.6325	308.726
298965	59.4372	308.464
298966	59.2413	308.206
298967	59.0446	307.952
298968	58.8472	307.701
298969	58.6492	307.453
298970	58.4505	307.209
298971	58.2512	306.968
298972	58.0513	306.73
298973	57.8507	306.496
298974	57.6495	306.265
298975	57.4478	306.036
298976	57.2454	305.811
298977	57.0425	305.589
298978	56.839	305.37
298979	56.635	305.153
298980	56.4304	304.94
298981	56.2253	304.729
298982	56.0197	304.521
298983	55.8136	304.316
298984	55.6069	304.114
298985	55.3998	303.914
298986	55.1922	303.716
298987	54.9841	303.522
298988	54.7756	303.33
298989	54.5666	303.14
298990	54.3571	302.953
298991	54.1472	302.768
298992	53.9369	302.586
298993	53.7261	302.406
298994	53.5149	302.228
298995	53.3033	302.052
298996	53.0913	301.879
298997	52.8789	301.708
298998	52.6662	301.539
298999	52.453	301.373
299000	52.2395	301.208
299001	52.0255	301.045
299002	51.8113	300.885
299003	51.5966	300.727
299004	51.3816	300.57
299005	51.1663	300.416
299006	50.9506	300.263
299007	50.7346	300.112
299008	50.5183	299.963
299009	50.3016	299.816
299010	50.0847	299.671
299011	49.8674	299.528
299012	49.6498	299.386
299013	49.4319	299.246
299014	49.2137	299.108
299015	48.9952	298.972
299016	48.7764	298.837
299017	48.5574	298.704
299018	48.3381	298.573
299019	48.1184	298.443
299020	47.8986	298.314
299021	47.6784	298.188
299022	47.458	298.062
299023	47.2374	297.939
299024	47.0165	297.816
299025	46.7953	297.696
299026	46.5739	297.576
299027	46.3523	297.458
299028	46.1304	297.342
299029	45.9083	297.227
299030	45.686	297.113
299031	45.4634	297.001
299032	45.2406	296.89
299033	45.0176	296.78
299034	44.7944	296.672
299035	44.571	296.565
299036	44.3474	296.459
299037	44.1235	296.354
299038	43.8995	296.251
299039	43.6753	296.149
299040	43.4508	296.048
299041	43.2262	295.948
299042	43.0014	295.85
299043	42.7764	295.752
299044	42.5512	295.656
299045	42.3258	295.561
299046	42.1003	295.467
299047	41.8745	295.374
299048	41.6487	295.282
299049	41.4226	295.192
299050	41.1964	295.102
299051	40.97	295.013
299052	40.7434	294.926
299053	40.5167	294.839
299054	40.2898	294.754
299055	40.0628	294.669
299056	39.8356	294.586
299057	39.6082	294.503
299058	39.3807	294.421
299059	39.1531	294.341
299060	38.9253	294.261
299061	38.6974	294.182
299062	38.4693	294.104
299063	38.2411	294.027
299064	38.0128	293.951
299065	37.7843	293.876
299066	37.5557	293.802
299067	37.327	293.728
299068	37.0981	293.656
299069	36.8691	293.584
299070	36.64	293.513
299071	36.4108	293.443
299072	36.1814	293.374
299073	35.9519	293.305
299074	35.7223	293.238
299075	35.4926	293.171
299076	35.2628	293.105
299077	35.0329	293.04
299078	34.8028	292.975
299079	34.5726	292.911
299080	34.3424	292.848
299081	34.112	292.786
299082	33.8815	292.725
299083	33.6509	292.664
299084	33.4203	292.604
299085	33.1895	292.545
299086	32.9586	292.486
299087	32.7276	292.428
299088	32.4965	292.371
299089	32.2654	292.314
299090	32.0341	292.258
299091	31.8027	292.203
299092	31.5713	292.149
299093	31.3397	292.095
299094	31.1081	292.041
299095	30.8764	291.989
299096	30.6446	291.937
299097	30.4127	291.886
299098	30.1808	291.835
299099	29.9487	291.785
299100	29.7166	291.735
299101	29.4844	291.687
299102	29.2521	291.638
299103	29.0197	291.591
299104	28.7873	291.544
299105	28.5548	291.497
299106	28.3222	291.452
299107	28.0895	291.406
299108	27.8568	291.362
299109	27.624	291.317
299110	27.3911	291.274
299111	27.1581	291.231
299112	26.9251	291.188
299113	26.692	291.147
299114	26.4589	291.105
299115	26.2257	291.064
299116	25.9924	291.024
299117	25.7591	290.984
299118	25.5257	290.945
299119	25.2922	290.906
299120	25.0587	290.868
299121	24.8251	290.831
299122	24.5915	290.793
299123	24.3578	290.757
299124	24.124	290.721
299125	23.8902	290.685
299126	23.6564	290.65
299127	23.4225	290.615
299128	23.1885	290.581
299129	22.9545	290.547
299130	22.7204	290.514
299131	22.4863	290.481
299132	22.2521	290.449
299133	22.0179	290.417
299134	21.7836	290.386
299135	21.5493	290.355
299136	21.3149	290.325
299137	21.0805	290.295
299138	20.846	290.265
299139	20.6115	290.236
299140	20.377	290.208
299141	20.1424	290.18
299142	19.9078	290.152
299143	19.6731	290.125
299144	19.4384	290.098
299145	19.2036	290.072
299146	18.9689	290.046
299147	18.734	290.02
299148	18.4992	289.995
299149	18.2643	289.97
299150	18.0293	289.946
299151	17.7943	289.922
299152	17.5593	289.899
299153	17.3243	289.876
299154	17.0892	289.853
299155	16.8541	289.831
299156	16.6189	289.809
299157	16.3837	289.788
299158	16.1485	289.767
299159	15.9133	289.747
299160	15.678	289.726
299161	15.4427	289.707
299162	15.2074	289.687
299163	14.972	289.668
299164	14.7366	289.65
299165	14.5012	289.632
299166	14.2658	289.614
299167	14.0303	289.596
299168	13.7948	289.579
299169	13.5593	289.563
299170	13.3237	289.546
299171	13.0882	289.53
299172	12.8526	289.515
299173	12.617	289.5
299174	12.3813	289.485
299175	12.1457	289.471
299176	11.91	289.457
299177	11.6743	289.443
299178	11.4386	289.43
299179	11.2029	289.417
299180	10.9671	289.404
299181	10.7313	289.392
299182	10.4955	289.38
299183	10.2597	289.369
299184	10.0239	289.358
299185	9.78808	289.347
299186	9.55222	289.337
299187	9.31635	289.327
299188	9.08047	289.317
299189	8.84457	289.308
299190	8.60865	289.299
299191	8.37273	289.29
299192	8.13679	289.282
299193	7.90084	289.274
299194	7.66488	289.266
299195	7.42891	289.259
299196	7.19293	289.252
299197	6.95694	289.246
299198	6.72094	289.24
299199	6.48493	289.234
299200	6.24891	289.228
299201	6.01288	289.223
299202	5.77685	289.219
299203	5.54081	289.214
299204	5.30476	289.21
299205	5.06871	289.206
299206	4.83265	289.203
299207	4.59659	289.2
299208	4.36052	289.197
299209	4.12445	289.195
299210	3.88838	289.193
299211	3.6523	289.191
299212	3.41622	289.19
299213	3.18014	289.189
299214	2.94405	289.188
299215	2.70797	289.188
299216	2.47189	289.188
299217	2.2358	289.188
299218	1.99972	289.189
299219	1.76364	289.19
299220	1.52755	289.191
299221	1.29148	289.193
299222	1.0554	289.195
299223	0.819324	289.197
299224	0.583254	289.2
299225	0.347188	289.203
299226	0.111125	289.207
299227	-0.124932	289.21
299228	-0.360984	289.214
299229	-0.59703	289.219
299230	-0.833069	289.223
299231	-1.0691	289.229
299232	-1.30513	289.234
299233	-1.54115	289.24
299234	-1.77715	289.246
299235	-2.01315	289.252
299236	-2.24915	289.259
299237	-2.48513	289.266
299238	-2.7211	289.274
299239	-2.95706	289.282
299240	-3.19301	289.29
299241	-3.42895	289.298
299242	-3.66487	289.307
299243	-3.90078	289.316
299244	-4.13668	289.326
299245	-4.37257	289.336
299246	-4.60844	289.346
299247	-4.84429	289.357
299248	-5.08013	289.368
299249	-5.31596	289.379
299250	-5.55177	289.39
299251	-5.78756	289.402
299252	-6.02333	289.415
299253	-6.25909	289.427
299254	-6.49483	289.44
299255	-6.73055	289.454
299256	-6.96625	289.468
299257	-7.20193	289.482
299258	-7.43758	289.496
299259	-7.67322	289.511
299260	-7.90884	289.526
299261	-8.14443	289.542
299262	-8.38001	289.557
299263	-8.61555	289.574
299264	-8.85108	289.59
299265	-9.08658	289.607
299266	-9.32205	289.625
299267	-9.5575	289.642
299268	-9.79293	289.66
299269	-10.0283	289.679
299270	-10.2637	289.697
299271	-10.499	289.717
299272	-10.7344	289.736
299273	-10.9696	289.756
299274	-11.2049	289.776
299275	-11.4401	289.797
299276	-11.6753	289.818
299277	-11.9105	289.84
299278	-12.1456	289.861
299279	-12.3807	289.884
299280	-12.6158	289.906
299281	-12.8508	289.929
299282	-13.0858	289.952
299283	-13.3208	289.976
299284	-13.5557	290
299285	-13.7906	290.025
299286	-14.0255	290.05
299287	-14.2603	290.075
299288	-14.4951	290.101
299289	-14.7298	290.127
299290	-14.9645	290.154
299291	-15.1992	290.181
299292	-15.4338	290.208
299293	-15.6684	290.236
299294	-15.9029	290.264
299295	-16.1374	290.292
299296	-16.3719	290.321
299297	-16.6063	290.351
299298	-16.8406	290.381
299299	-17.075	290.411
299300	-17.3092	290.442
299301	-17.5435	290.473
299302	-17.7776	290.505
299303	-18.0118	290.537
299304	-18.2459	290.569
299305	-18.4799	290.602
299306	-18.7139	290.635
299307	-18.9478	290.669
299308	-19.1817	290.703
299309	-19.4155	290.738
299310	-19.6493	290.773
299311	-19.883	290.809
299312	-20.1166	290.845
299313	-20.3502	290.881
299314	-20.5838	290.918
299315	-20.8173	290.956
299316	-21.0507	290.994
299317	-21.2841	291.032
299318	-21.5174	291.071
299319	-21.7507	291.11
299320	-21.9838	291.15
299321	-22.217	291.191
299322	-22.45	291.232
299323	-22.683	291.273
299324	-22.916	291.315
299325	-23.1488	291.357
299326	-23.3816	291.4
299327	-23.6144	291.444
299328	-23.847	291.487
299329	-24.0796	291.532
299330	-24.3121	291.577
299331	-24.5446	291.622
299332	-24.7769	291.668
299333	-25.0092	291.715
299334	-25.2415	291.762
299335	-25.4736	291.81
299336	-25.7057	291.858
299337	-25.9377	291.907
299338	-26.1696	291.956
299339	-26.4014	292.006
299340	-26.6332	292.057
299341	-26.8648	292.108
299342	-27.0964	292.159
299343	-27.3279	292.212
299344	-27.5593	292.265
299345	-27.7906	292.318
299346	-28.0219	292.372
299347	-28.253	292.427
299348	-28.4841	292.482
299349	-28.715	292.538
299350	-28.9459	292.594
299351	-29.1767	292.651
299352	-29.4073	292.709
299353	-29.6379	292.768
299354	-29.8684	292.827
299355	-30.0988	292.886
299356	-30.3291	292.947
299357	-30.5592	293.008
299358	-30.7893	293.07
299359	-31.0193	293.132
299360	-31.2491	293.195
299361	-31.4789	293.259
299362	-31.7085	293.324
299363	-31.938	293.389
299364	-32.1674	293.455
299365	-32.3967	293.521
299366	-32.6259	293.589
299367	-32.855	293.657
299368	-33.0839	293.726
299369	-33.3128	293.795
299370	-33.5415	293.866
299371	-33.77	293.937
299372	-33.9985	294.009
299373	-34.2268	294.081
299374	-34.455	294.155
299375	-34.683	294.229
299376	-34.911	294.304
299377	-35.1388	294.38
299378	-35.3664	294.457
299379	-35.5939	294.534
299380	-35.8213	294.613
299381	-36.0485	294.692
299382	-36.2756	294.772
299383	-36.5026	294.853
299384	-36.7294	294.935
299385	-36.956	295.018
299386	-37.1825	295.102
299387	-37.4088	295.186
299388	-37.635	295.272
299389	-37.861	295.358
299390	-38.0869	295.446
299391	-38.3125	295.534
299392	-38.5381	295.623
299393	-38.7634	295.714
299394	-38.9886	295.805
299395	-39.2136	295.897
299396	-39.4384	295.99
299397	-39.6631	296.085
299398	-39.8875	296.18
299399	-40.1118	296.276
299400	-40.3359	296.374
299401	-40.5598	296.472
299402	-40.7836	296.572
299403	-41.0071	296.673
299404	-41.2304	296.774
299405	-41.4535	296.877
299406	-41.6764	296.981
299407	-41.8992	297.087
299408	-42.1217	297.193
299409	-42.3439	297.301
299410	-42.566	297.409
299411	-42.7879	297.519
299412	-43.0095	297.631
299413	-43.2309	297.743
299414	-43.4521	297.857
299415	-43.673	297.972
299416	-43.8937	298.088
299417	-44.1142	298.206
299418	-44.3344	298.325
299419	-44.5544	298.445
299420	-44.7741	298.566
299421	-44.9936	298.689
299422	-45.2128	298.814
299423	-45.4318	298.939
299424	-45.6505	299.067
299425	-45.8689	299.195
299426	-46.087	299.325
299427	-46.3049	299.457
299428	-46.5224	299.59
299429	-46.7397	299.725
299430	-46.9567	299.861
299431	-47.1734	299.999
299432	-47.3898	300.138
299433	-47.6059	300.279
299434	-47.8217	300.421
299435	-48.0372	300.565
299436	-48.2523	300.711
299437	-48.4671	300.859
299438	-48.6816	301.008
299439	-48.8958	301.159
299440	-49.1096	301.312
299441	-49.323	301.467
299442	-49.5361	301.623
299443	-49.7489	301.781
299444	-49.9612	301.941
299445	-50.1732	302.103
299446	-50.3849	302.267
299447	-50.5961	302.433
299448	-50.807	302.601
299449	-51.0174	302.771
299450	-51.2275	302.943
299451	-51.4371	303.117
299452	-51.6464	303.293
299453	-51.8552	303.471
299454	-52.0636	303.651
299455	-52.2715	303.834
299456	-52.479	304.018
299457	-52.686	304.205
299458	-52.8926	304.394
299459	-53.0987	304.586
299460	-53.3044	304.78
299461	-53.5095	304.976
299462	-53.7142	305.174
299463	-53.9183	305.375
299464	-54.122	305.579
299465	-54.3251	305.785
299466	-54.5277	305.993
299467	-54.7298	306.204
299468	-54.9313	306.418
299469	-55.1322	306.635
299470	-55.3326	306.854
299471	-55.5324	307.075
299472	-55.7317	307.3
299473	-55.9303	307.527
299474	-56.1283	307.758
299475	-56.3257	307.991
299476	-56.5225	308.227
299477	-56.7186	308.466
299478	-56.9141	308.708
299479	-57.109	308.953
299480	-57.3031	309.201
299481	-57.4966	309.453
299482	-57.6893	309.707
299483	-57.8814	309.965
299484	-58.0727	310.226
299485	-58.2632	310.49
299486	-58.4531	310.758
299487	-58.6421	311.029
299488	-58.8304	311.304
299489	-59.0179	311.582
299490	-59.2046	311.864
299491	-59.3904	312.149
299492	-59.5754	312.438
299493	-59.7596	312.731
299494	-59.9428	313.027
299495	-60.1252	313.328
299496	-60.3067	313.632
299497	-60.4873	313.94
299498	-60.6669	314.252
299499	-60.8456	314.568
299500	-61.0233	314.888
299501	-61.2	315.213
299502	-61.3757	315.541
299503	-61.5504	315.874
299504	-61.724	316.211
299505	-61.8965	316.552
299506	-62.068	316.898
299507	-62.2384	317.248
299508	-62.4076	317.602
299509	-62.5757	317.961
299510	-62.7426	318.325
299511	-62.9083	318.694
299512	-63.0728	319.067
299513	-63.2361	319.444
299514	-63.3981	319.827
299515	-63.5588	320.215
299516	-63.7183	320.607
299517	-63.8764	321.004
299518	-64.0331	321.407
299519	-64.1885	321.814
299520	-64.3424	322.226
380160	-77.1449	273.067
380161	-77.3946	273.13
380162	-77.6442	273.195
380163	-77.8939	273.262
380164	-78.1435	273.333
380165	-78.3931	273.406
380166	-78.6427	273.482
380167	-78.8923	273.562
380168	-79.1419	273.646
380169	-79.3914	273.733
380170	-79.6409	273.824
380171	-79.8904	273.92
380172	-80.1398	274.021
380173	-80.3893	274.126
380174	-80.6387	274.238
380175	-80.888	274.355
380176	-81.1373	274.479
380177	-81.3866	274.61
380178	-81.6358	274.749
380179	-81.885	274.896
380180	-82.1341	275.052
380181	-82.3832	275.218
380182	-82.6321	275.396
380183	-82.8811	275.586
380184	-83.1299	275.789
380185	-83.3786	276.008
380186	-83.6273	276.244
380187	-83.8758	276.499
380188	-84.1242	276.775
380189	-84.3724	277.075
380190	-84.6205	277.403
380191	-84.8684	277.763
380192	-85.116	278.159
380193	-85.3634	278.597
380194	-85.6106	279.084
380195	-85.8573	279.629
380196	-86.1036	280.243
380197	-86.3495	280.939
380198	-86.5947	281.736
380199	-86.8392	282.656
380200	-87.0827	283.729
380201	-87.325	284.998
380202	-87.5657	286.518
380203	-87.8043	288.369
380204	-88.0402	290.668
380205	-88.2719	293.59
380206	-88.4979	297.402
380207	-88.7148	302.531
380208	-88.9174	309.657
380209	-89.096	319.812
380210	-89.2334	334.228
380211	-89.3049	353.12
380212	-89.2903	13.5929
380213	-89.1943	31.1553
380214	-89.0409	44.0579
380215	-88.8531	53.0836
380216	-88.645	59.459
380217	-88.4246	64.0963
380218	-88.1965	67.5793
380219	-87.9632	70.2729
380220	-87.7264	72.4095
380221	-87.487	74.1414
380222	-87.2457	75.5712
380223	-87.0029	76.7703
380224	-86.7591	77.7896
380225	-86.5144	78.6662
380226	-86.2689	79.4278
380227	-86.0229	80.0955
380228	-85.7765	80.6855
380229	-85.5296	81.2106
380230	-85.2824	81.6808
380231	-85.0349	82.1043
380232	-84.7871	82.4877
380233	-84.5392	82.8364
380234	-84.2911	83.155
380235	-84.0428	83.4471
380236	-83.7943	83.716
380237	-83.5458	83.9643
380238	-83.2971	84.1942
380239	-83.0483	84.4079
380240	-82.7995	84.6068
380241	-82.5505	84.7926
380242	-82.3015	84.9664
380243	-82.0524	85.1295
380244	-81.8033	85.2827
380245	-81.5541	85.4269
380246	-81.3049	85.563
380247	-81.0556	85.6916
380248	-80.8063	85.8133
380249	-80.5569	85.9286
380250	-80.3075	86.0381
380251	-80.0581	86.1422
380252	-79.8086	86.2412
380253	-79.5591	86.3356
380254	-79.3096	86.4256
380255	-79.0601	86.5116
380256	-78.8105	86.5939
380257	-78.5609	86.6726
380258	-78.3113	86.748
380259	-78.0617	86.8203
380260	-77.8121	86.8897
380261	-77.5624	86.9564
380262	-77.3127	87.0205
380263	-77.063	87.0823
380264	-76.8133	87.1417
380265	-76.5636	87.199
380266	-76.3139	87.2542
380267	-76.0642	87.3075
380268	-75.8144	87.359
380269	-75.5647	87.4088
380270	-75.3149	87.4569
380271	-75.0651	87.5035
380272	-74.8153	87.5486
380273	-74.5655	87.5922
380274	-74.3157	87.6346
380275	-74.0659	87.6756
380276	-73.8161	87.7154
380277	-73.5663	87.7541
380278	-73.3164	87.7917
380279	-73.0666	87.8282
380280	-72.8167	87.8636
380281	-72.5669	87.8981
380282	-72.317	87.9317
380283	-72.0672	87.9644
380284	-71.8173	87.9962
380285	-71.5674	88.0272
380286	-71.3176	88.0574
380287	-71.0677	88.0869
380288	-70.8178	88.1156
380289	-70.5679	88.1437
380290	-70.318	88.171
380291	-70.0681	88.1977
380292	-69.8182	88.2238
380293	-69.5683	88.2493
380294	-69.3184	88.2742
380295	-69.0685	88.2986
380296	-68.8186	88.3224
380297	-68.5687	88.3457
380298	-68.3187	88.3685
380299	-68.0688	88.3908
380300	-67.8189	88.4127
380301	-67.5689	88.4341
380302	-67.319	88.455
380303	-67.0691	88.4756
380304	-66.8191	88.4957
380305	-66.5692	88.5155
380306	-66.3193	88.5348
380307	-66.0693	88.5538
380308	-65.8194	88.5724
380309	-65.5694	88.5907
380310	-65.3195	88.6086
380311	-65.0695	88.6263
380312	-64.8196	88.6435
380313	-64.5696	88.6605
380314	-64.3197	88.6772
380315	-64.0697	88.6936
380316	-63.8197	88.7097
380317	-63.5698	88.7256
380318	-63.3198	88.7412
380319	-63.0698	88.7565
380320	-62.8199	88.7716
380321	-62.5699	88.7864
380322	-62.3199	88.801
380323	-62.07	88.8153
380324	-61.82	88.8295
380325	-61.57	88.8434
380326	-61.32	88.8571
380327	-61.0701	88.8706
380328	-60.8201	88.8838
380329	-60.5701	88.8969
380330	-60.3201	88.9098
380331	-60.0701	88.9225
380332	-59.8202	88.9351
380333	-59.5702	88.9474
380334	-59.3202	88.9596
380335	-59.0702	88.9716
380336	-58.8202	88.9835
380337	-58.5702	88.9951
380338	-58.3202	89.0067
380339	-58.0703	89.0181
380340	-57.8203	89.0293
380341	-57.5703	89.0404
380342	-57.3203	89.0513
380343	-57.0703	89.0621
380344	-56.8203	89.0727
380345	-56.5703	89.0833
380346	-56.3203	89.0937
380347	-56.0703	89.1039
380348	-55.8203	89.1141
380349	-55.5703	89.1241
380350	-55.3203	89.134
380351	-55.0703	89.1438
380352	-54.8203	89.1535
380353	-54.5703	89.163
380354	-54.3203	89.1725
380355	-54.0703	89.1818
380356	-53.8203	89.1911
380357	-53.5703	89.2002
380358	-53.3203	89.2093
380359	-53.0703	89.2182
380360	-52.8203	89.2271
380361	-52.5703	89.2358
380362	-52.3203	89.2445
380363	-52.0703	89.2531
380364	-51.8203	89.2616
380365	-51.5703	89.27
380366	-51.3203	89.2783
380367	-51.0703	89.2865
380368	-50.8202	89.2947
380369	-50.5702	89.3027
380370	-50.3202	89.3107
380371	-50.0702	89.3187
380372	-49.8202	89.3265
380373	-49.5702	89.3343
380374	-49.3202	89.342
380375	-49.0702	89.3496
380376	-48.8202	89.3572
380377	-48.5701	89.3646
380378	-48.3201	89.3721
380379	-48.0701	89.3794
380380	-47.8201	89.3867
380381	-47.5701	89.394
380382	-47.3201	89.4011
380383	-47.0701	89.4082
380384	-46.8201	89.4153
380385	-46.57	89.4223
380386	-46.32	89.4292
380387	-46.07	89.4361
380388	-45.82	89.4429
380389	-45.57	89.4497
380390	-45.32	89.4564
380391	-45.0699	89.4631
380392	-44.8199	89.4697
380393	-44.5699	89.4762
380394	-44.3199	89.4828
380395	-44.0699	89.4892
380396	-43.8199	89.4956
380397	-43.5698	89.502
380398	-43.3198	89.5083
380399	-43.0698	89.5146
380400	-42.8198	89.5208
380401	-42.5698	89.527
380402	-42.3197	89.5332
380403	-42.0697	89.5393
380404	-41.8197	89.5454
380405	-41.5697	89.5514
380406	-41.3197	89.5574
380407	-41.0696	89.5633
380408	-40.8196	89.5692
380409	-40.5696	89.5751
380410	-40.3196	89.5809
380411	-40.0695	89.5867
380412	-39.8195	89.5925
380413	-39.5695	89.5982
380414	-39.3195	89.6039
380415	-39.0695	89.6095
380416	-38.8194	89.6151
380417	-38.5694	89.6207
380418	-38.3194	89.6263
380419	-38.0694	89.6318
380420	-37.8193	89.6373
380421	-37.5693	89.6428
380422	-37.3193	89.6482
380423	-37.0693	89.6536
380424	-36.8192	89.659
380425	-36.5692	89.6643
380426	-36.3192	89.6696
380427	-36.0692	89.6749
380428	-35.8192	89.6802
380429	-35.5691	89.6854
380430	-35.3191	89.6906
380431	-35.0691	89.6958
380432	-34.8191	89.7009
380433	-34.569	89.7061
380434	-34.319	89.7112
380435	-34.069	89.7162
380436	-33.819	89.7213
380437	-33.5689	89.7263
380438	-33.3189	89.7313
380439	-33.0689	89.7363
380440	-32.8188	89.7413
380441	-32.5688	89.7462
380442	-32.3188	89.7512
380443	-32.0688	89.7561
380444	-31.8187	89.7609
380445	-31.5687	89.7658
380446	-31.3187	89.7706
380447	-31.0687	89.7755
380448	-30.8186	89.7803
380449	-30.5686	89.785
380450	-30.3186	89.7898
380451	-30.0686	89.7946
380452	-29.8185	89.7993
380453	-29.5685	89.804
380454	-29.3185	89.8087
380455	-29.0684	89.8134
380456	-28.8184	89.818
380457	-28.5684	89.8227
380458	-28.3184	89.8273
380459	-28.0683	89.8319
380460	-27.8183	89.8365
380461	-27.5683	89.8411
380462	-27.3183	89.8456
380463	-27.0682	89.8502
380464	-26.8182	89.8547
380465	-26.5682	89.8592
380466	-26.3181	89.8637
380467	-26.0681	89.8682
380468	-25.8181	89.8727
380469	-25.5681	89.8772
380470	-25.318	89.8816
380471	-25.068	89.8861
380472	-24.818	89.8905
380473	-24.5679	89.8949
380474	-24.3179	89.8993
380475	-24.0679	89.9037
380476	-23.8179	89.9081
380477	-23.5678	89.9125
380478	-23.3178	89.9168
380479	-23.0678	89.9212
380480	-22.8177	89.9255
380481	-22.5677	89.9298
380482	-22.3177	89.9341
380483	-22.0677	89.9385
380484	-21.8176	89.9428
380485	-21.5676	89.947
380486	-21.3176	89.9513
380487	-21.0675	89.9556
380488	-20.8175	89.9599
380489	-20.5675	89.9641
380490	-20.3175	89.9684
380491	-20.0674	89.9726
380492	-19.8174	89.9768
380493	-19.5674	89.9811
380494	-19.3173	89.9853
380495	-19.0673	89.9895
380496	-18.8173	89.9937
380497	-18.5673	89.9979
380498	-18.3172	90.0021
380499	-18.0672	90.0062
380500	-17.8172	90.0104
380501	-17.5671	90.0146
380502	-17.3171	90.0188
380503	-17.0671	90.0229
380504	-16.8171	90.0271
380505	-16.567	90.0312
380506	-16.317	90.0354
380507	-16.067	90.0395
380508	-15.8169	90.0436
380509	-15.5669	90.0477
380510	-15.3169	90.0519
380511	-15.0669	90.056
380512	-14.8168	90.0601
380513	-14.5668	90.0642
380514	-14.3168	90.0683
380515	-14.0667	90.0724
380516	-13.8167	90.0765
380517	-13.5667	90.0806
380518	-13.3166	90.0847
380519	-13.0666	90.0888
380520	-12.8166	90.0929
380521	-12.5666	90.097
380522	-12.3165	90.1011
380523	-12.0665	90.1052
380524	-11.8165	90.1092
380525	-11.5665	90.1133
380526	-11.3164	90.1174
380527	-11.0664	90.1215
380528	-10.8164	90.1255
380529	-10.5663	90.1296
380530	-10.3163	90.1337
380531	-10.0663	90.1378
380532	-9.81625	90.1418
380533	-9.56623	90.1459
380534	-9.3162	90.15
380535	-9.06617	90.154
380536	-8.81614	90.1581
380537	-8.56611	90.1622
380538	-8.31609	90.1662
380539	-8.06606	90.1703
380540	-7.81603	90.1744
380541	-7.566	90.1784
380542	-7.31598	90.1825
380543	-7.06595	90.1866
380544	-6.81592	90.1907
380545	-6.56589	90.1947
380546	-6.31587	90.1988
380547	-6.06584	90.2029
380548	-5.81581	90.207
380549	-5.56578	90.2111
380550	-5.31576	90.2152
380551	-5.06573	90.2192
380552	-4.8157	90.2233
380553	-4.56568	90.2274
380554	-4.31565	90.2315
380555	-4.06562	90.2356
380556	-3.8156	90.2397
380557	-3.56557	90.2438
380558	-3.31554	90.2479
380559	-3.06552	90.252
380560	-2.81549	90.2562
380561	-2.56547	90.2603
380562	-2.31544	90.2644
380563	-2.06541	90.2685
380564	-1.81539	90.2727
380565	-1.56536	90.2768
380566	-1.31534	90.2809
380567	-1.06531	90.2851
380568	-0.815285	90.2892
380569	-0.56526	90.2934
380570	-0.315235	90.2976
380571	-0.0652096	90.3017
380572	0.184815	90.3059
380573	0.43484	90.3101
380574	0.684865	90.3143
380575	0.93489	90.3185
380576	1.18491	90.3227
380577	1.43494	90.3269
380578	1.68496	90.3311
380579	1.93499	90.3353
380580	2.18501	90.3395
380581	2.43504	90.3438
380582	2.68506	90.348
380583	2.93508	90.3522
380584	3.18511	90.3565
380585	3.43513	90.3608
380586	3.68515	90.365
380587	3.93518	90.3693
380588	4.1852	90.3736
380589	4.43522	90.3779
380590	4.68525	90.3822
380591	4.93527	90.3865
380592	5.18529	90.3908
380593	5.43532	90.3952
380594	5.68534	90.3995
380595	5.93536	90.4039
380596	6.18538	90.4082
380597	6.4354	90.4126
380598	6.68543	90.417
380599	6.93545	90.4214
380600	7.18547	90.4258
380601	7.43549	90.4302
380602	7.68551	90.4346
380603	7.93553	90.4391
380604	8.18555	90.4435
380605	8.43557	90.448
380606	8.6856	90.4524
380607	8.93562	90.4569
380608	9.18564	90.4614
380609	9.43566	90.4659
380610	9.68568	90.4705
380611	9.9357	90.475
380612	10.1857	90.4795
380613	10.4357	90.4841
380614	10.6858	90.4887
380615	10.9358	90.4933
380616	11.1858	90.4979
380617	11.4358	90.5025
380618	11.6858	90.5071
380619	11.9358	90.5117
380620	12.1859	90.5164
380621	12.4359	90.5211
380622	12.6859	90.5258
380623	12.9359	90.5305
380624	13.1859	90.5352
380625	13.436	90.5399
380626	13.686	90.5447
380627	13.936	90.5494
380628	14.186	90.5542
380629	14.436	90.559
380630	14.686	90.5638
380631	14.9361	90.5687
380632	15.1861	90.5735
380633	15.4361	90.5784
380634	15.6861	90.5833
380635	15.9361	90.5882
380636	16.1861	90.5931
380637	16.4361	90.5981
380638	16.6862	90.603
380639	16.9362	90.608
380640	17.1862	90.613
380641	17.4362	90.618
380642	17.6862	90.6231
380643	17.9362	90.6282
380644	18.1862	90.6332
380645	18.4362	90.6383
380646	18.6863	90.6435
380647	18.9363	90.6486
380648	19.1863	90.6538
380649	19.4363	90.659
380650	19.6863	90.6642
380651	19.9363	90.6694
380652	20.1863	90.6747
380653	20.4363	90.68
380654	20.6863	90.6853
380655	20.9364	90.6906
380656	21.1864	90.696
380657	21.4364	90.7014
380658	21.6864	90.7068
380659	21.9364	90.7122
380660	22.1864	90.7177
380661	22.4364	90.7232
380662	22.6864	90.7287
380663	22.9364	90.7342
380664	23.1864	90.7398
380665	23.4364	90.7454
380666	23.6864	90.751
380667	23.9364	90.7566
380668	24.1865	90.7623
380669	24.4365	90.768
380670	24.6865	90.7738
380671	24.9365	90.7795
380672	25.1865	90.7853
380673	25.4365	90.7912
380674	25.6865	90.797
380675	25.9365	90.8029
380676	26.1865	90.8088
380677	26.4365	90.8148
380678	26.6865	90.8208
380679	26.9365	90.8268
380680	27.1865	90.8329
380681	27.4365	90.8389
380682	27.6865	90.8451
380683	27.9365	90.8512
380684	28.1865	90.8574
380685	28.4365	90.8637
380686	28.6865	90.8699
380687	28.9365	90.8762
380688	29.1865	90.8826
380689	29.4365	90.889
380690	29.6865	90.8954
380691	29.9365	90.9019
380692	30.1865	90.9084
380693	30.4365	90.9149
380694	30.6865	90.9215
380695	30.9365	90.9281
380696	31.1864	90.9348
380697	31.4364	90.9415
380698	31.6864	90.9482
380699	31.9364	90.955
380700	32.1864	90.9619
380701	32.4364	90.9688
380702	32.6864	90.9757
380703	32.9364	90.9827
380704	33.1864	90.9897
380705	33.4364	90.9968
380706	33.6864	91.0039
380707	33.9363	91.0111
380708	34.1863	91.0183
380709	34.4363	91.0256
380710	34.6863	91.0329
380711	34.9363	91.0403
380712	35.1863	91.0477
380713	35.4363	91.0552
380714	35.6862	91.0628
380715	35.9362	91.0704
380716	36.1862	91.078
380717	36.4362	91.0857
380718	36.6862	91.0935
380719	36.9362	91.1013
380720	37.1861	91.1092
380721	37.4361	91.1171
380722	37.6861	91.1251
380723	37.9361	91.1332
380724	38.186	91.1413
380725	38.436	91.1495
380726	38.686	91.1578
380727	38.936	91.1661
380728	39.1859	91.1745
380729	39.4359	91.183
380730	39.6859	91.1915
380731	39.9359	91.2001
380732	40.1858	91.2088
380733	40.4358	91.2176
380734	40.6858	91.2264
380735	40.9357	91.2353
380736	41.1857	91.2443
380737	41.4357	91.2533
380738	41.6856	91.2625
380739	41.9356	91.2717
380740	42.1856	91.281
380741	42.4355	91.2904
380742	42.6855	91.2998
380743	42.9354	91.3094
380744	43.1854	91.319
380745	43.4354	91.3287
380746	43.6853	91.3385
380747	43.9353	91.3484
380748	44.1852	91.3584
380749	44.4352	91.3685
380750	44.6851	91.3787
380751	44.9351	91.389
380752	45.185	91.3994
380753	45.435	91.4099
380754	45.6849	91.4205
380755	45.9349	91.4312
380756	46.1848	91.442
380757	46.4348	91.4529
380758	46.6847	91.4639
380759	46.9347	91.475
380760	47.1846	91.4863
380761	47.4345	91.4976
380762	47.6845	91.5091
380763	47.9344	91.5207
380764	48.1844	91.5324
380765	48.4343	91.5443
380766	48.6842	91.5563
380767	48.9342	91.5684
380768	49.1841	91.5806
380769	49.434	91.593
380770	49.6839	91.6055
380771	49.9339	91.6181
380772	50.1838	91.6309
380773	50.4337	91.6439
380774	50.6836	91.657
380775	50.9336	91.6702
380776	51.1835	91.6836
380777	51.4334	91.6971
380778	51.6833	91.7109
380779	51.9332	91.7247
380780	52.1831	91.7388
380781	52.433	91.753
380782	52.6829	91.7674
380783	52.9328	91.7819
380784	53.1827	91.7967
380785	53.4326	91.8116
380786	53.6825	91.8267
380787	53.9324	91.842
380788	54.1823	91.8575
380789	54.4322	91.8732
380790	54.6821	91.8891
380791	54.932	91.9052
380792	55.1819	91.9216
380793	55.4317	91.9381
380794	55.6816	91.9549
380795	55.9315	91.9719
380796	56.1814	91.9891
380797	56.4312	92.0066
380798	56.6811	92.0243
380799	56.931	92.0423
380800	57.1808	92.0605
380801	57.4307	92.0789
380802	57.6806	92.0977
380803	57.9304	92.1167
380804	58.1803	92.136
380805	58.4301	92.1556
380806	58.6799	92.1755
380807	58.9298	92.1957
380808	59.1796	92.2162
380809	59.4295	92.237
380810	59.6793	92.2581
380811	59.9291	92.2795
380812	60.1789	92.3013
380813	60.4287	92.3235
380814	60.6786	92.346
380815	60.9284	92.3689
380816	61.1782	92.3921
380817	61.428	92.4157
380818	61.6778	92.4398
380819	61.9276	92.4642
380820	62.1773	92.4891
380821	62.4271	92.5144
380822	62.6769	92.5401
380823	62.9267	92.5663
380824	63.1764	92.5929
380825	63.4262	92.62
380826	63.676	92.6476
380827	63.9257	92.6758
380828	64.1755	92.7044
380829	64.4252	92.7336
380830	64.6749	92.7633
380831	64.9246	92.7936
380832	65.1744	92.8245
380833	65.4241	92.856
380834	65.6738	92.8882
380835	65.9235	92.9209
380836	66.1732	92.9543
380837	66.4229	92.9885
380838	66.6725	93.0233
380839	66.9222	93.0588
380840	67.1718	93.0951
380841	67.4215	93.1322
380842	67.6711	93.1701
380843	67.9208	93.2088
380844	68.1704	93.2484
380845	68.42	93.2888
380846	68.6696	93.3302
380847	68.9192	93.3726
380848	69.1688	93.4159
380849	69.4183	93.4602
380850	69.6679	93.5056
380851	69.9174	93.5522
380852	70.1669	93.5998
380853	70.4165	93.6487
380854	70.666	93.6987
380855	70.9154	93.7501
380856	71.1649	93.8028
380857	71.4144	93.8569
380858	71.6638	93.9124
380859	71.9132	93.9694
380860	72.1626	94.028
380861	72.412	94.0882
380862	72.6614	94.1501
380863	72.9107	94.2138
380864	73.1601	94.2793
380865	73.4094	94.3468
380866	73.6586	94.4163
380867	73.9079	94.4879
380868	74.1571	94.5618
380869	74.4063	94.638
380870	74.6555	94.7166
380871	74.9047	94.7977
380872	75.1538	94.8816
380873	75.4029	94.9683
380874	75.6519	95.058
380875	75.9009	95.1507
380876	76.1499	95.2468
380877	76.3989	95.3464
380878	76.6478	95.4496
380879	76.8966	95.5568
380880	77.1454	95.668
380881	77.3942	95.7836
380882	77.6429	95.9037
380883	77.8915	96.0288
380884	78.1401	96.1591
380885	78.3886	96.2949
380886	78.6371	96.4366
380887	78.8855	96.5846
380888	79.1338	96.7393
380889	79.382	96.9012
380890	79.6302	97.0708
380891	79.8782	97.2487
380892	80.1262	97.4354
380893	80.374	97.6318
380894	80.6217	97.8384
380895	80.8693	98.0562
380896	81.1168	98.286
380897	81.3641	98.529
380898	81.6112	98.7862
380899	81.8582	99.059
380900	82.105	99.3488
380901	82.3515	99.6572
380902	82.5978	99.986
380903	82.8439	100.337
380904	83.0897	100.714
380905	83.3351	101.118
380906	83.5802	101.553
380907	83.8249	102.022
380908	84.0692	102.53
380909	84.3129	103.081
380910	84.5561	103.682
380911	84.7987	104.338
380912	85.0404	105.059
380913	85.2814	105.853
380914	85.5213	106.732
380915	85.76	107.711
380916	85.9974	108.805
380917	86.2331	110.038
380918	86.4669	111.433
380919	86.6983	113.026
380920	86.9267	114.856
380921	87.1515	116.978
380922	87.3717	119.459
380923	87.5862	122.386
380924	87.7931	125.874
380925	87.9901	130.063
380926	88.1742	135.128
380927	88.3409	141.268
380928	88.4845	148.671
380929	88.5978	157.44
380930	88.6732	167.469
380931	88.704	178.329
380932	88.687	189.304
380933	88.624	199.634
380934	88.5209	208.794
380935	88.3853	216.59
380936	88.2246	223.079
380937	88.0451	228.436
380938	87.8515	232.86
380939	87.6471	236.535
380940	87.4347	239.613
380941	87.216	242.213
380942	86.9924	244.432
380943	86.765	246.341
380944	86.5344	247.998
380945	86.3013	249.447
380946	86.0661	250.723
380947	85.8292	251.856
380948	85.5908	252.866
380949	85.3512	253.773
380950	85.1106	254.59
380951	84.869	255.331
380952	84.6267	256.005
380953	84.3837	256.621
380954	84.1401	257.186
380955	83.896	257.706
380956	83.6514	258.186
380957	83.4064	258.631
380958	83.161	259.043
380959	82.9153	259.427
380960	82.6694	259.786
380961	82.4231	260.121
380962	82.1766	260.435
380963	81.9299	260.73
380964	81.683	261.007
380965	81.4359	261.269
380966	81.1887	261.516
380967	80.9412	261.749
380968	80.6937	261.971
380969	80.446	262.18
380970	80.1982	262.38
380971	79.9503	262.569
380972	79.7023	262.749
380973	79.4541	262.921
380974	79.2059	263.085
380975	78.9577	263.242
380976	78.7093	263.392
380977	78.4608	263.535
380978	78.2123	263.673
380979	77.9638	263.805
380980	77.7151	263.931
380981	77.4664	264.053
380982	77.2177	264.169
380983	76.9689	264.282
380984	76.7201	264.39
380985	76.4712	264.494
380986	76.2223	264.595
380987	75.9733	264.692
380988	75.7243	264.786
380989	75.4752	264.876
380990	75.2262	264.964
380991	74.9771	265.048
380992	74.7279	265.13
380993	74.4788	265.21
380994	74.2296	265.286
380995	73.9803	265.361
380996	73.7311	265.433
380997	73.4818	265.503
380998	73.2325	265.571
380999	72.9832	265.637
381000	72.7339	265.701
381001	72.4845	265.764
381002	72.2351	265.824
381003	71.9857	265.883
381004	71.7363	265.941
381005	71.4869	265.997
381006	71.2374	266.051
381007	70.9879	266.104
381008	70.7385	266.156
381009	70.489	266.206
381010	70.2395	266.255
381011	69.9899	266.303
381012	69.7404	266.35
381013	69.4908	266.396
381014	69.2413	266.44
381015	68.9917	266.484
381016	68.7421	266.526
381017	68.4925	266.568
381018	68.2429	266.608
381019	67.9933	266.648
381020	67.7437	266.687
381021	67.494	266.725
381022	67.2444	266.762
381023	66.9947	266.799
381024	66.7451	266.835
381025	66.4954	266.869
381026	66.2457	266.904
381027	65.996	266.937
381028	65.7463	266.97
381029	65.4966	267.002
381030	65.2469	267.034
381031	64.9972	267.065
381032	64.7475	267.095
381033	64.4978	267.125
381034	64.248	267.154
381035	63.9983	267.183
381036	63.7485	267.211
381037	63.4988	267.239
381038	63.249	267.266
381039	62.9993	267.293
381040	62.7495	267.319
381041	62.4997	267.345
381042	62.2499	267.37
381043	62.0001	267.395
381044	61.7504	267.419
381045	61.5006	267.444
381046	61.2508	267.467
381047	61.001	267.49
381048	60.7511	267.513
381049	60.5013	267.536
381050	60.2515	267.558
381051	60.0017	267.58
381052	59.7519	267.601
381053	59.502	267.622
381054	59.2522	267.643
381055	59.0024	267.664
381056	58.7525	267.684
381057	58.5027	267.704
381058	58.2529	267.723
381059	58.003	267.742
381060	57.7532	267.761
381061	57.5033	267.78
381062	57.2534	267.799
381063	57.0036	267.817
381064	56.7537	267.835
381065	56.5038	267.852
381066	56.254	267.87
381067	56.0041	267.887
381068	55.7542	267.904
381069	55.5044	267.921
381070	55.2545	267.937
381071	55.0046	267.953
381072	54.7547	267.969
381073	54.5048	267.985
381074	54.2549	268.001
381075	54.005	268.016
381076	53.7551	268.032
381077	53.5052	268.047
381078	53.2553	268.061
381079	53.0054	268.076
381080	52.7555	268.091
381081	52.5056	268.105
381082	52.2557	268.119
381083	52.0058	268.133
381084	51.7559	268.147
381085	51.506	268.16
381086	51.2561	268.174
381087	51.0062	268.187
381088	50.7562	268.2
381089	50.5063	268.213
381090	50.2564	268.226
381091	50.0065	268.239
381092	49.7566	268.251
381093	49.5066	268.264
381094	49.2567	268.276
381095	49.0068	268.288
381096	48.7568	268.3
381097	48.5069	268.312
381098	48.257	268.324
381099	48.007	268.335
381100	47.7571	268.347
381101	47.5072	268.358
381102	47.2572	268.369
381103	47.0073	268.38
381104	46.7573	268.391
381105	46.5074	268.402
381106	46.2575	268.413
381107	46.0075	268.424
381108	45.7576	268.434
381109	45.5076	268.445
381110	45.2577	268.455
381111	45.0077	268.465
381112	44.7578	268.476
381113	44.5078	268.486
381114	44.2579	268.496
381115	44.0079	268.505
381116	43.7579	268.515
381117	43.508	268.525
381118	43.258	268.534
381119	43.0081	268.544
381120	42.7581	268.553
381121	42.5081	268.563
381122	42.2582	268.572
381123	42.0082	268.581
381124	41.7583	268.59
381125	41.5083	268.599
381126	41.2583	268.608
381127	41.0084	268.617
381128	40.7584	268.625
381129	40.5084	268.634
381130	40.2584	268.643
381131	40.0085	268.651
381132	39.7585	268.66
381133	39.5085	268.668
381134	39.2586	268.676
381135	39.0086	268.684
381136	38.7586	268.693
381137	38.5086	268.701
381138	38.2587	268.709
381139	38.0087	268.717
381140	37.7587	268.724
381141	37.5087	268.732
381142	37.2587	268.74
381143	37.0088	268.748
381144	36.7588	268.755
381145	36.5088	268.763
381146	36.2588	268.77
381147	36.0088	268.778
381148	35.7589	268.785
381149	35.5089	268.793
381150	35.2589	268.8
381151	35.0089	268.807
381152	34.7589	268.814
381153	34.5089	268.821
381154	34.2589	268.828
381155	34.009	268.835
381156	33.759	268.842
381157	33.509	268.849
381158	33.259	268.856
381159	33.009	268.863
381160	32.759	268.87
381161	32.509	268.876
381162	32.259	268.883
381163	32.009	268.89
381164	31.759	268.896
381165	31.509	268.903
381166	31.2591	268.909
381167	31.0091	268.916
381168	30.7591	268.922
381169	30.5091	268.928
381170	30.2591	268.935
381171	30.0091	268.941
381172	29.7591	268.947
381173	29.5091	268.953
381174	29.2591	268.96
381175	29.0091	268.966
381176	28.7591	268.972
381177	28.5091	268.978
381178	28.2591	268.984
381179	28.0091	268.99
381180	27.7591	268.996
381181	27.5091	269.001
381182	27.2591	269.007
381183	27.0091	269.013
381184	26.7591	269.019
381185	26.5091	269.025
381186	26.2591	269.03
381187	26.0091	269.036
381188	25.7591	269.041
381189	25.5091	269.047
381190	25.2591	269.053
381191	25.0091	269.058
381192	24.7591	269.064
381193	24.5091	269.069
381194	24.259	269.074
381195	24.009	269.08
381196	23.759	269.085
381197	23.509	269.091
381198	23.259	269.096
381199	23.009	269.101
381200	22.759	269.106
381201	22.509	269.112
381202	22.259	269.117
381203	22.009	269.122
381204	21.759	269.127
381205	21.509	269.132
381206	21.2589	269.137
381207	21.0089	269.142
381208	20.7589	269.147
381209	20.5089	269.152
381210	20.2589	269.157
381211	20.0089	269.162
381212	19.7589	269.167
381213	19.5089	269.172
381214	19.2589	269.177
381215	19.0088	269.182
381216	18.7588	269.186
381217	18.5088	269.191
381218	18.2588	269.196
381219	18.0088	269.201
381220	17.7588	269.205
381221	17.5088	269.21
381222	17.2588	269.215
381223	17.0087	269.219
381224	16.7587	269.224
381225	16.5087	269.229
381226	16.2587	269.233
381227	16.0087	269.238
381228	15.7587	269.242
381229	15.5086	269.247
381230	15.2586	269.251
381231	15.0086	269.256
381232	14.7586	269.26
381233	14.5086	269.265
381234	14.2586	269.269
381235	14.0085	269.274
381236	13.7585	269.278
381237	13.5085	269.282
381238	13.2585	269.287
381239	13.0085	269.291
381240	12.7584	269.295
381241	12.5084	269.3
381242	12.2584	269.304
381243	12.0084	269.308
381244	11.7584	269.312
381245	11.5084	269.317
381246	11.2583	269.321
381247	11.0083	269.325
381248	10.7583	269.329
381249	10.5083	269.333
381250	10.2582	269.338
381251	10.0082	269.342
381252	9.75821	269.346
381253	9.50819	269.35
381254	9.25816	269.354
381255	9.00814	269.358
381256	8.75812	269.362
381257	8.5081	269.366
381258	8.25808	269.37
381259	8.00805	269.374
381260	7.75803	269.378
381261	7.50801	269.382
381262	7.25799	269.386
381263	7.00796	269.39
381264	6.75794	269.394
381265	6.50792	269.398
381266	6.25789	269.402
381267	6.00787	269.406
381268	5.75784	269.409
381269	5.50782	269.413
381270	5.2578	269.417
381271	5.00777	269.421
381272	4.75775	269.425
381273	4.50772	269.429
381274	4.2577	269.432
381275	4.00767	269.436
381276	3.75765	269.44
381277	3.50762	269.444
381278	3.2576	269.448
381279	3.00757	269.451
381280	2.75754	269.455
381281	2.50752	269.459
381282	2.25749	269.462
381283	2.00747	269.466
381284	1.75744	269.47
381285	1.50741	269.474
381286	1.25739	269.477
381287	1.00736	269.481
381288	0.757332	269.485
381289	0.507305	269.488
381290	0.257278	269.492
381291	0.00725047	269.495
381292	-0.242777	269.499
381293	-0.492805	269.503
381294	-0.742832	269.506
381295	-0.99286	269.51
381296	-1.24289	269.513
381297	-1.49292	269.517
381298	-1.74294	269.52
381299	-1.99297	269.524
381300	-2.243	269.528
381301	-2.49303	269.531
381302	-2.74306	269.535
381303	-2.99309	269.538
381304	-3.24312	269.542
381305	-3.49315	269.545
381306	-3.74317	269.549
381307	-3.9932	269.552
381308	-4.24323	269.556
381309	-4.49326	269.559
381310	-4.74329	269.562
381311	-4.99332	269.566
381312	-5.24335	269.569
381313	-5.49338	269.573
381314	-5.74341	269.576
381315	-5.99344	269.58
381316	-6.24347	269.583
381317	-6.4935	269.586
381318	-6.74353	269.59
381319	-6.99356	269.593
381320	-7.24359	269.597
381321	-7.49362	269.6
381322	-7.74365	269.603
381323	-7.99369	269.607
381324	-8.24372	269.61
381325	-8.49375	269.613
381326	-8.74378	269.617
381327	-8.99381	269.62
381328	-9.24384	269.624
381329	-9.49387	269.627
381330	-9.7439	269.63
381331	-9.99394	269.634
381332	-10.244	269.637
381333	-10.494	269.64
381334	-10.744	269.643
381335	-10.9941	269.647
381336	-11.2441	269.65
381337	-11.4941	269.653
381338	-11.7442	269.657
381339	-11.9942	269.66
381340	-12.2442	269.663
381341	-12.4943	269.667
381342	-12.7443	269.67
381343	-12.9943	269.673
381344	-13.2444	269.676
381345	-13.4944	269.68
381346	-13.7444	269.683
381347	-13.9945	269.686
381348	-14.2445	269.689
381349	-14.4945	269.693
381350	-14.7445	269.696
381351	-14.9946	269.699
381352	-15.2446	269.702
381353	-15.4946	269.706
381354	-15.7447	269.709
381355	-15.9947	269.712
381356	-16.2447	269.715
381357	-16.4948	269.719
381358	-16.7448	269.722
381359	-16.9948	269.725
381360	-17.2449	269.728
381361	-17.4949	269.732
381362	-17.745	269.735
381363	-17.995	269.738
381364	-18.245	269.741
381365	-18.4951	269.745
381366	-18.7451	269.748
381367	-18.9951	269.751
381368	-19.2452	269.754
381369	-19.4952	269.757
381370	-19.7452	269.761
381371	-19.9953	269.764
381372	-20.2453	269.767
381373	-20.4953	269.77
381374	-20.7454	269.773
381375	-20.9954	269.777
381376	-21.2454	269.78
381377	-21.4955	269.783
381378	-21.7455	269.786
381379	-21.9955	269.79
381380	-22.2456	269.793
381381	-22.4956	269.796
381382	-22.7456	269.799
381383	-22.9957	269.802
381384	-23.2457	269.806
381385	-23.4957	269.809
381386	-23.7458	269.812
381387	-23.9958	269.815
381388	-24.2458	269.819
381389	-24.4959	269.822
381390	-24.7459	269.825
381391	-24.996	269.828
381392	-25.246	269.832
381393	-25.496	269.835
381394	-25.7461	269.838
381395	-25.9961	269.841
381396	-26.2461	269.844
381397	-26.4962	269.848
381398	-26.7462	269.851
381399	-26.9962	269.854
381400	-27.2463	269.857
381401	-27.4963	269.861
381402	-27.7463	269.864
381403	-27.9964	269.867
381404	-28.2464	269.871
381405	-28.4964	269.874
381406	-28.7465	269.877
381407	-28.9965	269.88
381408	-29.2466	269.884
381409	-29.4966	269.887
381410	-29.7466	269.89
381411	-29.9967	269.894
381412	-30.2467	269.897
381413	-30.4967	269.9
381414	-30.7468	269.903
381415	-30.9968	269.907
381416	-31.2468	269.91
381417	-31.4969	269.913
381418	-31.7469	269.917
381419	-31.9969	269.92
381420	-32.247	269.923
381421	-32.497	269.927
381422	-32.7471	269.93
381423	-32.9971	269.934
381424	-33.2471	269.937
381425	-33.4972	269.94
381426	-33.7472	269.944
381427	-33.9972	269.947
381428	-34.2473	269.95
381429	-34.4973	269.954
381430	-34.7473	269.957
381431	-34.9974	269.961
381432	-35.2474	269.964
381433	-35.4975	269.968
381434	-35.7475	269.971
381435	-35.9975	269.974
381436	-36.2476	269.978
381437	-36.4976	269.981
381438	-36.7476	269.985
381439	-36.9977	269.988
381440	-37.2477	269.992
381441	-37.4977	269.995
381442	-37.7478	269.999
381443	-37.9978	270.003
381444	-38.2479	270.006
381445	-38.4979	270.01
381446	-38.7479	270.013
381447	-38.998	270.017
381448	-39.248	270.02
381449	-39.498	270.024
381450	-39.7481	270.028
381451	-39.9981	270.031
381452	-40.2481	270.035
381453	-40.4982	270.039
381454	-40.7482	270.042
381455	-40.9982	270.046
381456	-41.2483	270.05
381457	-41.4983	270.053
381458	-41.7484	270.057
381459	-41.9984	270.061
381460	-42.2484	270.065
381461	-42.4985	270.068
381462	-42.7485	270.072
381463	-42.9985	270.076
381464	-43.2486	270.08
381465	-43.4986	270.084
381466	-43.7486	270.087
381467	-43.9987	270.091
381468	-44.2487	270.095
381469	-44.4988	270.099
381470	-44.7488	270.103
381471	-44.9988	270.107
381472	-45.2489	270.111
381473	-45.4989	270.115
381474	-45.7489	270.119
381475	-45.999	270.123
381476	-46.249	270.127
381477	-46.499	270.131
381478	-46.7491	270.135
381479	-46.9991	270.139
381480	-47.2491	270.144
381481	-47.4992	270.148
381482	-47.7492	270.152
381483	-47.9992	270.156
381484	-48.2493	270.16
381485	-48.4993	270.165
381486	-48.7494	270.169
381487	-48.9994	270.173
381488	-49.2494	270.178
381489	-49.4995	270.182
381490	-49.7495	270.186
381491	-49.9995	270.191
381492	-50.2496	270.195
381493	-50.4996	270.2
381494	-50.7496	270.204
381495	-50.9997	270.209
381496	-51.2497	270.213
381497	-51.4997	270.218
381498	-51.7498	270.223
381499	-51.9998	270.227
381500	-52.2498	270.232
381501	-52.4999	270.237
381502	-52.7499	270.242
381503	-52.9999	270.247
381504	-53.25	270.251
381505	-53.5	270.256
381506	-53.75	270.261
381507	-54.0001	270.266
381508	-54.2501	270.271
381509	-54.5001	270.276
381510	-54.7502	270.281
381511	-55.0002	270.287
381512	-55.2502	270.292
381513	-55.5003	270.297
381514	-55.7503	270.302
381515	-56.0003	270.308
381516	-56.2504	270.313
381517	-56.5004	270.319
381518	-56.7504	270.324
381519	-57.0005	270.33
381520	-57.2505	270.335
381521	-57.5005	270.341
381522	-57.7506	270.347
381523	-58.0006	270.353
381524	-58.2506	270.358
381525	-58.5007	270.364
381526	-58.7507	270.37
381527	-59.0007	270.376
381528	-59.2508	270.382
381529	-59.5008	270.389
381530	-59.7508	270.395
381531	-60.0008	270.401
381532	-60.2509	270.408
381533	-60.5009	270.414
381534	-60.7509	270.421
381535	-61.001	270.427
381536	-61.251	270.434
381537	-61.501	270.441
381538	-61.7511	270.448
381539	-62.0011	270.455
381540	-62.2511	270.462
381541	-62.5011	270.469
381542	-62.7512	270.476
381543	-63.0012	270.484
381544	-63.2512	270.491
381545	-63.5013	270.499
381546	-63.7513	270.506
381547	-64.0013	270.514
381548	-64.2513	270.522
381549	-64.5014	270.53
381550	-64.7514	270.538
381551	-65.0014	270.546
381552	-65.2514	270.555
381553	-65.5015	270.563
381554	-65.7515	270.572
381555	-66.0015	270.581
381556	-66.2515	270.59
381557	-66.5016	270.599
381558	-66.7516	270.608
381559	-67.0016	270.618
381560	-67.2516	270.627
381561	-67.5016	270.637
381562	-67.7517	270.647
381563	-68.0017	270.657
381564	-68.2517	270.668
381565	-68.5017	270.678
381566	-68.7518	270.689
381567	-69.0018	270.7
381568	-69.2518	270.711
381569	-69.5018	270.722
381570	-69.7518	270.734
381571	-70.0018	270.746
381572	-70.2519	270.758
381573	-70.5019	270.771
381574	-70.7519	270.783
381575	-71.0019	270.796
381576	-71.2519	270.809
381577	-71.5019	270.823
381578	-71.7519	270.837
381579	-72.002	270.851
381580	-72.252	270.866
381581	-72.502	270.881
381582	-72.752	270.896
381583	-73.002	270.912
381584	-73.252	270.928
381585	-73.502	270.945
381586	-73.752	270.962
381587	-74.002	270.979
381588	-74.252	270.997
381589	-74.502	271.016
381590	-74.752	271.035
381591	-75.002	271.055
381592	-75.252	271.075
381593	-75.502	271.096
381594	-75.752	271.117
381595	-76.002	271.14
381596	-76.252	271.163
381597	-76.5019	271.187
381598	-76.7519	271.211
381599	-77.0019	271.237
381600	-77.2519	271.263
426240	-74.2901	222.265
426241	-74.457	221.603
426242	-74.6217	220.927
426243	-74.7841	220.237
426244	-74.9443	219.531
426245	-75.102	218.809
426246	-75.2572	218.073
426247	-75.4099	217.32
426248	-75.5599	216.552
426249	-75.7073	215.767
426250	-75.8518	214.966
426251	-75.9934	214.148
426252	-76.132	213.314
426253	-76.2675	212.462
426254	-76.3999	211.594
426255	-76.5291	210.709
426256	-76.6548	209.806
426257	-76.7771	208.887
426258	-76.8959	207.95
426259	-77.011	206.996
426260	-77.1224	206.026
426261	-77.2299	205.038
426262	-77.3335	204.034
426263	-77.4331	203.013
426264	-77.5285	201.976
426265	-77.6197	200.924
426266	-77.7066	199.856
426267	-77.7891	198.773
426268	-77.867	197.676
426269	-77.9404	196.565
426270	-78.0091	195.44
426271	-78.073	194.303
426272	-78.1321	193.154
426273	-78.1863	191.994
426274	-78.2355	190.823
426275	-78.2797	189.643
426276	-78.3188	188.455
426277	-78.3527	187.259
426278	-78.3815	186.057
426279	-78.405	184.849
426280	-78.4233	183.637
426281	-78.4362	182.421
426282	-78.4439	181.203
426283	-78.4463	179.985
426284	-78.4433	178.766
426285	-78.435	177.548
426286	-78.4214	176.333
426287	-78.4026	175.121
426288	-78.3785	173.914
426289	-78.3491	172.712
426290	-78.3146	171.517
426291	-78.2749	170.33
426292	-78.2301	169.151
426293	-78.1804	167.982
426294	-78.1256	166.823
426295	-78.0659	165.675
426296	-78.0015	164.539
426297	-77.9322	163.416
426298	-77.8583	162.307
426299	-77.7798	161.211
426300	-77.6969	160.13
426301	-77.6095	159.064
426302	-77.5178	158.013
426303	-77.4219	156.978
426304	-77.3219	155.96
426305	-77.2178	154.957
426306	-77.1098	153.972
426307	-76.998	153.003
426308	-76.8825	152.051
426309	-76.7633	151.116
426310	-76.6406	150.199
426311	-76.5145	149.298
426312	-76.385	148.415
426313	-76.2522	147.549
426314	-76.1163	146.699
426315	-75.9774	145.867
426316	-75.8354	145.051
426317	-75.6906	144.252
426318	-75.543	143.469
426319	-75.3926	142.703
426320	-75.2397	141.952
426321	-75.0841	141.217
426322	-74.9262	140.498
426323	-74.7658	139.794
426324	-74.6031	139.105
426325	-74.4381	138.43
426326	-74.271	137.77
426327	-74.1018	137.125
426328	-73.9305	136.493
426329	-73.7572	135.875
426330	-73.5821	135.27
426331	-73.4051	134.678
426332	-73.2263	134.099
426333	-73.0457	133.533
426334	-72.8635	132.978
426335	-72.6796	132.436
426336	-72.4942	131.906
426337	-72.3072	131.386
426338	-72.1188	130.878
426339	-71.9289	130.381
426340	-71.7376	129.894
426341	-71.545	129.418
426342	-71.3511	128.952
426343	-71.1559	128.496
426344	-70.9595	128.049
426345	-70.762	127.612
426346	-70.5632	127.184
426347	-70.3634	126.764
426348	-70.1624	126.354
426349	-69.9604	125.952
426350	-69.7574	125.558
426351	-69.5534	125.172
426352	-69.3485	124.794
426353	-69.1426	124.424
426354	-68.9358	124.061
426355	-68.7282	123.706
426356	-68.5197	123.357
426357	-68.3103	123.016
426358	-68.1002	122.681
426359	-67.8893	122.353
426360	-67.6776	122.032
426361	-67.4652	121.716
426362	-67.2521	121.407
426363	-67.0382	121.104
426364	-66.8237	120.806
426365	-66.6086	120.514
426366	-66.3928	120.228
426367	-66.1764	119.947
426368	-65.9594	119.672
426369	-65.7417	119.401
426370	-65.5236	119.136
426371	-65.3048	118.875
426372	-65.0855	118.619
426373	-64.8657	118.368
426374	-64.6454	118.122
426375	-64.4246	117.88
426376	-64.2033	117.642
426377	-63.9815	117.409
426378	-63.7592	117.179
426379	-63.5365	116.954
426380	-63.3134	116.733
426381	-63.0898	116.515
426382	-62.8658	116.302
426383	-62.6414	116.092
426384	-62.4166	115.885
426385	-62.1914	115.683
426386	-61.9658	115.483
426387	-61.7399	115.287
426388	-61.5136	115.095
426389	-61.2869	114.905
426390	-61.0599	114.719
426391	-60.8326	114.536
426392	-60.6049	114.356
426393	-60.377	114.178
426394	-60.1487	114.004
426395	-59.9201	113.833
426396	-59.6911	113.664
426397	-59.462	113.498
426398	-59.2325	113.335
426399	-59.0027	113.174
426400	-58.7727	113.016
426401	-58.5424	112.86
426402	-58.3118	112.707
426403	-58.081	112.556
426404	-57.8499	112.408
426405	-57.6186	112.262
426406	-57.3871	112.118
426407	-57.1553	111.976
426408	-56.9233	111.836
426409	-56.6911	111.699
426410	-56.4586	111.564
426411	-56.2259	111.43
426412	-55.9931	111.299
426413	-55.76	111.17
426414	-55.5267	111.042
426415	-55.2932	110.917
426416	-55.0595	110.793
426417	-54.8256	110.672
426418	-54.5916	110.551
426419	-54.3574	110.433
426420	-54.1229	110.317
426421	-53.8884	110.202
426422	-53.6536	110.088
426423	-53.4187	109.977
426424	-53.1836	109.867
426425	-52.9483	109.758
426426	-52.7129	109.652
426427	-52.4773	109.546
426428	-52.2416	109.442
426429	-52.0058	109.34
426430	-51.7697	109.239
426431	-51.5336	109.139
426432	-51.2973	109.041
426433	-51.0609	108.944
426434	-50.8243	108.849
426435	-50.5876	108.754
426436	-50.3507	108.661
426437	-50.1138	108.57
426438	-49.8767	108.479
426439	-49.6395	108.39
426440	-49.4021	108.302
426441	-49.1647	108.216
426442	-48.9271	108.13
426443	-48.6894	108.046
426444	-48.4516	107.962
426445	-48.2137	107.88
426446	-47.9757	107.799
426447	-47.7375	107.719
426448	-47.4993	107.64
426449	-47.261	107.562
426450	-47.0225	107.485
426451	-46.784	107.409
426452	-46.5454	107.334
426453	-46.3066	107.261
426454	-46.0678	107.188
426455	-45.8289	107.116
426456	-45.5899	107.045
426457	-45.3508	106.974
426458	-45.1116	106.905
426459	-44.8723	106.837
426460	-44.633	106.77
426461	-44.3935	106.703
426462	-44.154	106.637
426463	-43.9144	106.572
426464	-43.6747	106.508
426465	-43.4349	106.445
426466	-43.1951	106.383
426467	-42.9552	106.321
426468	-42.7152	106.26
426469	-42.4751	106.2
426470	-42.235	106.141
426471	-41.9948	106.083
426472	-41.7545	106.025
426473	-41.5141	105.968
426474	-41.2737	105.911
426475	-41.0332	105.856
426476	-40.7927	105.801
426477	-40.5521	105.747
426478	-40.3114	105.693
426479	-40.0706	105.64
426480	-39.8298	105.588
426481	-39.589	105.537
426482	-39.3481	105.486
426483	-39.1071	105.436
426484	-38.866	105.386
426485	-38.625	105.337
426486	-38.3838	105.289
426487	-38.1426	105.241
426488	-37.9013	105.194
426489	-37.66	105.147
426490	-37.4187	105.102
426491	-37.1773	105.056
426492	-36.9358	105.011
426493	-36.6943	104.967
426494	-36.4527	104.924
426495	-36.2111	104.88
426496	-35.9694	104.838
426497	-35.7277	104.796
426498	-35.486	104.754
426499	-35.2442	104.714
426500	-35.0023	104.673
426501	-34.7604	104.633
426502	-34.5185	104.594
426503	-34.2765	104.555
426504	-34.0345	104.516
426505	-33.7925	104.479
426506	-33.5504	104.441
426507	-33.3082	104.404
426508	-33.066	104.368
426509	-32.8238	104.332
426510	-32.5816	104.296
426511	-32.3393	104.261
426512	-32.0969	104.227
426513	-31.8546	104.193
426514	-31.6122	104.159
426515	-31.3697	104.126
426516	-31.1273	104.093
426517	-30.8848	104.06
426518	-30.6422	104.028
426519	-30.3996	103.997
426520	-30.157	103.966
426521	-29.9144	103.935
426522	-29.6717	103.905
426523	-29.429	103.875
426524	-29.1863	103.846
426525	-28.9435	103.817
426526	-28.7007	103.788
426527	-28.4579	103.76
426528	-28.2151	103.732
426529	-27.9722	103.704
426530	-27.7293	103.677
426531	-27.4863	103.65
426532	-27.2434	103.624
426533	-27.0004	103.598
426534	-26.7574	103.572
426535	-26.5143	103.547
426536	-26.2713	103.522
426537	-26.0282	103.498
426538	-25.785	103.474
426539	-25.5419	103.45
426540	-25.2987	103.426
426541	-25.0556	103.403
426542	-24.8123	103.381
426543	-24.5691	103.358
426544	-24.3259	103.336
426545	-24.0826	103.314
426546	-23.8393	103.293
426547	-23.596	103.272
426548	-23.3526	103.251
426549	-23.1093	103.231
426550	-22.8659	103.21
426551	-22.6225	103.191
426552	-22.3791	103.171
426553	-22.1356	103.152
426554	-21.8922	103.133
426555	-21.6487	103.115
426556	-21.4052	103.097
426557	-21.1617	103.079
426558	-20.9182	103.061
426559	-20.6746	103.044
426560	-20.4311	103.027
426561	-20.1875	103.01
426562	-19.9439	102.994
426563	-19.7003	102.978
426564	-19.4567	102.962
426565	-19.213	102.946
426566	-18.9694	102.931
426567	-18.7257	102.916
426568	-18.482	102.901
426569	-18.2383	102.887
426570	-17.9946	102.873
426571	-17.7509	102.859
426572	-17.5071	102.846
426573	-17.2634	102.832
426574	-17.0196	102.819
426575	-16.7759	102.807
426576	-16.5321	102.794
426577	-16.2883	102.782
426578	-16.0445	102.77
426579	-15.8007	102.759
426580	-15.5568	102.747
426581	-15.313	102.736
426582	-15.0691	102.725
426583	-14.8253	102.715
426584	-14.5814	102.704
426585	-14.3375	102.694
426586	-14.0936	102.685
426587	-13.8497	102.675
426588	-13.6058	102.666
426589	-13.3619	102.657
426590	-13.118	102.648
426591	-12.874	102.64
426592	-12.6301	102.631
426593	-12.3861	102.623
426594	-12.1422	102.616
426595	-11.8982	102.608
426596	-11.6543	102.601
426597	-11.4103	102.594
426598	-11.1663	102.587
426599	-10.9223	102.581
426600	-10.6783	102.574
426601	-10.4343	102.568
426602	-10.1903	102.563
426603	-9.94631	102.557
426604	-9.70229	102.552
426605	-9.45827	102.547
426606	-9.21425	102.542
426607	-8.97022	102.537
426608	-8.72619	102.533
426609	-8.48215	102.529
426610	-8.23811	102.525
426611	-7.99407	102.522
426612	-7.75002	102.518
426613	-7.50597	102.515
426614	-7.26192	102.512
426615	-7.01787	102.51
426616	-6.77381	102.507
426617	-6.52975	102.505
426618	-6.2857	102.503
426619	-6.04163	102.501
426620	-5.79757	102.5
426621	-5.55351	102.499
426622	-5.30944	102.498
426623	-5.06538	102.497
426624	-4.82131	102.496
426625	-4.57725	102.496
426626	-4.33318	102.496
426627	-4.08912	102.496
426628	-3.84505	102.496
426629	-3.60099	102.497
426630	-3.35693	102.498
426631	-3.11286	102.499
426632	-2.8688	102.5
426633	-2.62474	102.502
426634	-2.38069	102.504
426635	-2.13663	102.506
426636	-1.89258	102.508
426637	-1.64853	102.51
426638	-1.40448	102.513
426639	-1.16043	102.516
426640	-0.916393	102.519
426641	-0.672354	102.522
426642	-0.428319	102.526
426643	-0.184287	102.53
426644	0.0597403	102.534
426645	0.303764	102.538
426646	0.547782	102.543
426647	0.791797	102.547
426648	1.03581	102.552
426649	1.27981	102.558
426650	1.52381	102.563
426651	1.7678	102.569
426652	2.01179	102.575
426653	2.25577	102.581
426654	2.49975	102.587
426655	2.74372	102.594
426656	2.98768	102.601
426657	3.23164	102.608
426658	3.47558	102.615
426659	3.71953	102.623
426660	3.96346	102.631
426661	4.20739	102.639
426662	4.4513	102.647
426663	4.69521	102.655
426664	4.93911	102.664
426665	5.18301	102.673
426666	5.42689	102.682
426667	5.67076	102.692
426668	5.91463	102.701
426669	6.15848	102.711
426670	6.40233	102.722
426671	6.64617	102.732
426672	6.88999	102.743
426673	7.1338	102.754
426674	7.37761	102.765
426675	7.6214	102.776
426676	7.86518	102.788
426677	8.10895	102.8
426678	8.35271	102.812
426679	8.59645	102.824
426680	8.84019	102.837
426681	9.08391	102.85
426682	9.32762	102.863
426683	9.57131	102.876
426684	9.81499	102.89
426685	10.0587	102.904
426686	10.3023	102.918
426687	10.546	102.932
426688	10.7896	102.947
426689	11.0332	102.962
426690	11.2768	102.977
426691	11.5204	102.993
426692	11.7639	103.008
426693	12.0075	103.024
426694	12.251	103.041
426695	12.4945	103.057
426696	12.738	103.074
426697	12.9815	103.091
426698	13.225	103.108
426699	13.4684	103.126
426700	13.7118	103.144
426701	13.9553	103.162
426702	14.1987	103.18
426703	14.442	103.199
426704	14.6854	103.218
426705	14.9287	103.237
426706	15.172	103.257
426707	15.4153	103.277
426708	15.6586	103.297
426709	15.9019	103.317
426710	16.1451	103.338
426711	16.3883	103.359
426712	16.6315	103.38
426713	16.8747	103.402
426714	17.1178	103.424
426715	17.361	103.446
426716	17.6041	103.468
426717	17.8471	103.491
426718	18.0902	103.514
426719	18.3332	103.537
426720	18.5762	103.561
426721	18.8192	103.585
426722	19.0622	103.609
426723	19.3051	103.634
426724	19.548	103.659
426725	19.7909	103.684
426726	20.0337	103.71
426727	20.2766	103.736
426728	20.5194	103.762
426729	20.7621	103.789
426730	21.0049	103.815
426731	21.2476	103.843
426732	21.4903	103.87
426733	21.733	103.898
426734	21.9756	103.926
426735	22.2182	103.955
426736	22.4607	103.984
426737	22.7033	104.013
426738	22.9458	104.043
426739	23.1883	104.073
426740	23.4307	104.103
426741	23.6731	104.134
426742	23.9155	104.165
426743	24.1578	104.197
426744	24.4001	104.228
426745	24.6424	104.261
426746	24.8846	104.293
426747	25.1269	104.326
426748	25.369	104.359
426749	25.6111	104.393
426750	25.8532	104.427
426751	26.0953	104.462
426752	26.3373	104.497
426753	26.5793	104.532
426754	26.8212	104.568
426755	27.0631	104.604
426756	27.305	104.641
426757	27.5468	104.678
426758	27.7886	104.715
426759	28.0303	104.753
426760	28.272	104.791
426761	28.5137	104.83
426762	28.7553	104.869
426763	28.9968	104.909
426764	29.2383	104.949
426765	29.4798	104.989
426766	29.7212	105.03
426767	29.9626	105.071
426768	30.2039	105.113
426769	30.4452	105.156
426770	30.6864	105.198
426771	30.9276	105.242
426772	31.1688	105.285
426773	31.4098	105.33
426774	31.6509	105.375
426775	31.8918	105.42
426776	32.1328	105.466
426777	32.3736	105.512
426778	32.6145	105.559
426779	32.8552	105.606
426780	33.0959	105.654
426781	33.3366	105.702
426782	33.5772	105.751
426783	33.8177	105.801
426784	34.0582	105.851
426785	34.2986	105.901
426786	34.5389	105.953
426787	34.7792	106.004
426788	35.0194	106.057
426789	35.2596	106.11
426790	35.4997	106.163
426791	35.7397	106.217
426792	35.9797	106.272
426793	36.2196	106.327
426794	36.4594	106.383
426795	36.6992	106.44
426796	36.9389	106.497
426797	37.1785	106.555
426798	37.418	106.614
426799	37.6575	106.673
426800	37.8969	106.733
426801	38.1362	106.793
426802	38.3754	106.854
426803	38.6146	106.916
426804	38.8537	106.979
426805	39.0927	107.042
426806	39.3316	107.106
426807	39.5704	107.171
426808	39.8092	107.237
426809	40.0479	107.303
426810	40.2864	107.37
426811	40.5249	107.438
426812	40.7633	107.507
426813	41.0016	107.576
426814	41.2399	107.646
426815	41.478	107.717
426816	41.716	107.789
426817	41.954	107.862
426818	42.1918	107.935
426819	42.4295	108.01
426820	42.6672	108.085
426821	42.9047	108.161
426822	43.1421	108.238
426823	43.3794	108.316
426824	43.6166	108.395
426825	43.8537	108.475
426826	44.0907	108.556
426827	44.3276	108.638
426828	44.5644	108.72
426829	44.801	108.804
426830	45.0376	108.889
426831	45.274	108.975
426832	45.5102	109.061
426833	45.7464	109.149
426834	45.9824	109.238
426835	46.2183	109.328
426836	46.4541	109.419
426837	46.6897	109.512
426838	46.9252	109.605
426839	47.1606	109.699
426840	47.3958	109.795
426841	47.6309	109.892
426842	47.8658	109.99
426843	48.1006	110.089
426844	48.3353	110.19
426845	48.5697	110.292
426846	48.8041	110.395
426847	49.0382	110.499
426848	49.2723	110.605
426849	49.5061	110.712
426850	49.7398	110.821
426851	49.9733	110.931
426852	50.2066	111.042
426853	50.4398	111.155
426854	50.6728	111.269
426855	50.9056	111.384
426856	51.1382	111.502
426857	51.3706	111.62
426858	51.6028	111.741
426859	51.8349	111.863
426860	52.0667	111.986
426861	52.2983	112.111
426862	52.5297	112.238
426863	52.761	112.367
426864	52.9919	112.497
426865	53.2227	112.629
426866	53.4533	112.763
426867	53.6836	112.899
426868	53.9137	113.036
426869	54.1435	113.175
426870	54.3732	113.317
426871	54.6025	113.46
426872	54.8316	113.606
426873	55.0605	113.753
426874	55.2891	113.902
426875	55.5174	114.054
426876	55.7455	114.208
426877	55.9733	114.364
426878	56.2008	114.522
426879	56.428	114.682
426880	56.6549	114.845
426881	56.8815	115.01
426882	57.1078	115.177
426883	57.3338	115.347
426884	57.5594	115.52
426885	57.7848	115.695
426886	58.0098	115.873
426887	58.2345	116.053
426888	58.4588	116.236
426889	58.6827	116.422
426890	58.9063	116.61
426891	59.1296	116.802
426892	59.3524	116.996
426893	59.5749	117.193
426894	59.7969	117.394
426895	60.0186	117.597
426896	60.2398	117.804
426897	60.4606	118.014
426898	60.681	118.227
426899	60.9009	118.443
426900	61.1204	118.663
426901	61.3394	118.887
426902	61.558	119.114
426903	61.776	119.345
426904	61.9936	119.579
426905	62.2106	119.817
426906	62.4271	120.06
426907	62.6431	120.306
426908	62.8586	120.556
426909	63.0734	120.81
426910	63.2877	121.069
426911	63.5015	121.332
426912	63.7146	121.599
426913	63.9271	121.871
426914	64.1389	122.147
426915	64.3501	122.428
426916	64.5607	122.714
426917	64.7706	123.005
426918	64.9797	123.301
426919	65.1882	123.602
426920	65.3959	123.908
426921	65.6029	124.22
426922	65.8091	124.537
426923	66.0145	124.86
426924	66.2191	125.188
426925	66.4228	125.523
426926	66.6257	125.863
426927	66.8277	126.209
426928	67.0288	126.562
426929	67.229	126.92
426930	67.4283	127.286
426931	67.6265	127.658
426932	67.8238	128.037
426933	68.02	128.423
426934	68.2152	128.815
426935	68.4093	129.216
426936	68.6023	129.623
426937	68.7941	130.038
426938	68.9848	130.461
426939	69.1742	130.892
426940	69.3624	131.33
426941	69.5493	131.777
426942	69.735	132.232
426943	69.9192	132.696
426944	70.1021	133.169
426945	70.2835	133.65
426946	70.4635	134.14
426947	70.642	134.64
426948	70.8189	135.149
426949	70.9943	135.668
426950	71.168	136.196
426951	71.34	136.735
426952	71.5103	137.283
426953	71.6788	137.842
426954	71.8455	138.412
426955	72.0103	138.992
426956	72.1732	139.582
426957	72.3341	140.184
426958	72.493	140.797
426959	72.6497	141.421
426960	72.8044	142.057
426961	72.9568	142.704
426962	73.1069	143.363
426963	73.2547	144.034
426964	73.4002	144.717
426965	73.5431	145.412
426966	73.6836	146.119
426967	73.8214	146.839
426968	73.9567	147.57
426969	74.0891	148.315
426970	74.2188	149.072
426971	74.3457	149.841
426972	74.4696	150.623
426973	74.5905	151.418
426974	74.7084	152.225
426975	74.8231	153.044
426976	74.9346	153.876
426977	75.0428	154.72
426978	75.1476	155.577
426979	75.249	156.446
426980	75.347	157.326
426981	75.4413	158.218
426982	75.532	159.122
426983	75.619	160.037
426984	75.7023	160.963
426985	75.7816	161.9
426986	75.8571	162.847
426987	75.9286	163.804
426988	75.9961	164.771
426989	76.0595	165.747
426990	76.1187	166.731
426991	76.1738	167.724
426992	76.2246	168.724
426993	76.271	169.732
426994	76.3132	170.746
426995	76.351	171.766
426996	76.3843	172.791
426997	76.4132	173.822
426998	76.4377	174.856
426999	76.4576	175.894
427000	76.473	176.934
427001	76.4838	177.977
427002	76.4902	179.02
427003	76.4919	180.065
427004	76.4891	181.109
427005	76.4818	182.153
427006	76.4699	183.195
427007	76.4534	184.235
427008	76.4325	185.272
427009	76.407	186.305
427010	76.3771	187.334
427011	76.3428	188.358
427012	76.304	189.377
427013	76.2608	190.39
427014	76.2134	191.396
427015	76.1616	192.394
427016	76.1056	193.385
427017	76.0454	194.368
427018	75.9811	195.342
427019	75.9127	196.306
427020	75.8403	197.261
427021	75.7639	198.206
427022	75.6837	199.14
427023	75.5996	200.064
427024	75.5117	200.976
427025	75.4202	201.877
427026	75.325	202.767
427027	75.2263	203.645
427028	75.1241	204.51
427029	75.0185	205.364
427030	74.9095	206.206
427031	74.7973	207.035
427032	74.6819	207.851
427033	74.5633	208.655
427034	74.4417	209.447
427035	74.3171	210.226
427036	74.1897	210.993
427037	74.0593	211.747
427038	73.9262	212.488
427039	73.7904	213.217
427040	73.652	213.934
427041	73.5109	214.638
427042	73.3674	215.33
427043	73.2214	216.01
427044	73.0731	216.678
427045	72.9224	217.335
427046	72.7695	217.979
427047	72.6144	218.612
427048	72.4572	219.234
427049	72.2979	219.844
427050	72.1365	220.443
427051	71.9732	221.032
427052	71.808	221.609
427053	71.6409	222.176
427054	71.472	222.732
427055	71.3013	223.279
427056	71.1289	223.815
427057	70.9548	224.341
427058	70.7791	224.857
427059	70.6018	225.364
427060	70.423	225.862
427061	70.2427	226.35
427062	70.061	226.829
427063	69.8778	227.3
427064	69.6932	227.762
427065	69.5073	228.215
427066	69.3201	228.66
427067	69.1317	229.097
427068	68.942	229.525
427069	68.7511	229.946
427070	68.559	230.359
427071	68.3658	230.765
427072	68.1715	231.164
427073	67.9761	231.555
427074	67.7796	231.939
427075	67.5821	232.316
427076	67.3837	232.687
427077	67.1842	233.05
427078	66.9838	233.408
427079	66.7825	233.759
427080	66.5803	234.104
427081	66.3773	234.443
427082	66.1733	234.775
427083	65.9686	235.102
427084	65.763	235.424
427085	65.5567	235.74
427086	65.3496	236.05
427087	65.1417	236.355
427088	64.9331	236.655
427089	64.7238	236.949
427090	64.5138	237.239
427091	64.3031	237.524
427092	64.0918	237.804
427093	63.8798	238.079
427094	63.6672	238.35
427095	63.454	238.616
427096	63.2401	238.878
427097	63.0257	239.135
427098	62.8107	239.389
427099	62.5952	239.638
427100	62.3791	239.883
427101	62.1625	240.124
427102	61.9454	240.362
427103	61.7277	240.595
427104	61.5096	240.825
427105	61.291	241.051
427106	61.0719	241.274
427107	60.8524	241.493
427108	60.6324	241.708
427109	60.4119	241.921
427110	60.191	242.13
427111	59.9697	242.336
427112	59.748	242.538
427113	59.5259	242.738
427114	59.3034	242.935
427115	59.0805	243.128
427116	58.8572	243.319
427117	58.6336	243.507
427118	58.4096	243.692
427119	58.1852	243.874
427120	57.9605	244.054
427121	57.7354	244.23
427122	57.5101	244.405
427123	57.2844	244.577
427124	57.0583	244.746
427125	56.832	244.913
427126	56.6054	245.077
427127	56.3784	245.239
427128	56.1512	245.399
427129	55.9237	245.557
427130	55.6958	245.712
427131	55.4678	245.865
427132	55.2394	246.016
427133	55.0108	246.165
427134	54.7819	246.312
427135	54.5528	246.457
427136	54.3234	246.599
427137	54.0938	246.74
427138	53.8639	246.879
427139	53.6338	247.016
427140	53.4035	247.151
427141	53.1729	247.285
427142	52.9421	247.416
427143	52.7111	247.546
427144	52.4799	247.674
427145	52.2485	247.8
427146	52.0169	247.925
427147	51.785	248.048
427148	51.553	248.169
427149	51.3208	248.289
427150	51.0883	248.408
427151	50.8557	248.524
427152	50.6229	248.64
427153	50.39	248.753
427154	50.1568	248.866
427155	49.9235	248.976
427156	49.69	249.086
427157	49.4563	249.194
427158	49.2225	249.301
427159	48.9885	249.406
427160	48.7543	249.51
427161	48.52	249.613
427162	48.2855	249.714
427163	48.0509	249.814
427164	47.8162	249.913
427165	47.5812	250.011
427166	47.3462	250.107
427167	47.111	250.202
427168	46.8756	250.297
427169	46.6401	250.39
427170	46.4045	250.481
427171	46.1688	250.572
427172	45.9329	250.662
427173	45.6969	250.75
427174	45.4608	250.838
427175	45.2245	250.924
427176	44.9881	251.01
427177	44.7516	251.094
427178	44.515	251.177
427179	44.2783	251.26
427180	44.0414	251.341
427181	43.8045	251.422
427182	43.5674	251.501
427183	43.3302	251.58
427184	43.093	251.657
427185	42.8556	251.734
427186	42.6181	251.81
427187	42.3805	251.885
427188	42.1428	251.959
427189	41.905	252.032
427190	41.6671	252.104
427191	41.4291	252.176
427192	41.191	252.247
427193	40.9528	252.317
427194	40.7145	252.386
427195	40.4762	252.454
427196	40.2377	252.521
427197	39.9992	252.588
427198	39.7606	252.654
427199	39.5219	252.719
427200	39.2831	252.784
427201	39.0442	252.848
427202	38.8052	252.911
427203	38.5662	252.973
427204	38.3271	253.035
427205	38.0879	253.096
427206	37.8486	253.156
427207	37.6093	253.215
427208	37.3699	253.274
427209	37.1304	253.332
427210	36.8908	253.39
427211	36.6512	253.447
427212	36.4115	253.503
427213	36.1717	253.559
427214	35.9319	253.614
427215	35.692	253.668
427216	35.452	253.722
427217	35.2119	253.775
427218	34.9718	253.828
427219	34.7317	253.88
427220	34.4914	253.931
427221	34.2512	253.982
427222	34.0108	254.032
427223	33.7704	254.082
427224	33.5299	254.131
427225	33.2894	254.18
427226	33.0488	254.228
427227	32.8082	254.276
427228	32.5675	254.323
427229	32.3267	254.369
427230	32.0859	254.415
427231	31.8451	254.461
427232	31.6041	254.506
427233	31.3632	254.55
427234	31.1222	254.594
427235	30.8811	254.637
427236	30.64	254.68
427237	30.3988	254.723
427238	30.1576	254.765
427239	29.9163	254.807
427240	29.675	254.848
427241	29.4337	254.888
427242	29.1923	254.928
427243	28.9508	254.968
427244	28.7094	255.007
427245	28.4678	255.046
427246	28.2263	255.085
427247	27.9846	255.123
427248	27.743	255.16
427249	27.5013	255.197
427250	27.2595	255.234
427251	27.0178	255.27
427252	26.7759	255.306
427253	26.5341	255.341
427254	26.2922	255.376
427255	26.0502	255.411
427256	25.8083	255.445
427257	25.5663	255.479
427258	25.3242	255.512
427259	25.0821	255.545
427260	24.84	255.578
427261	24.5978	255.61
427262	24.3557	255.642
427263	24.1134	255.674
427264	23.8712	255.705
427265	23.6289	255.736
427266	23.3866	255.766
427267	23.1442	255.796
427268	22.9018	255.826
427269	22.6594	255.855
427270	22.417	255.884
427271	22.1745	255.913
427272	21.932	255.941
427273	21.6894	255.969
427274	21.4469	255.996
427275	21.2043	256.024
427276	20.9617	256.051
427277	20.719	256.077
427278	20.4763	256.103
427279	20.2336	256.129
427280	19.9909	256.155
427281	19.7481	256.18
427282	19.5053	256.205
427283	19.2625	256.23
427284	19.0197	256.254
427285	18.7768	256.278
427286	18.5339	256.301
427287	18.291	256.325
427288	18.0481	256.348
427289	17.8051	256.371
427290	17.5622	256.393
427291	17.3192	256.415
427292	17.0761	256.437
427293	16.8331	256.458
427294	16.59	256.48
427295	16.3469	256.501
427296	16.1038	256.521
427297	15.8607	256.541
427298	15.6176	256.561
427299	15.3744	256.581
427300	15.1312	256.601
427301	14.888	256.62
427302	14.6448	256.639
427303	14.4015	256.657
427304	14.1583	256.676
427305	13.915	256.694
427306	13.6717	256.711
427307	13.4283	256.729
427308	13.185	256.746
427309	12.9417	256.763
427310	12.6983	256.78
427311	12.4549	256.796
427312	12.2115	256.812
427313	11.9681	256.828
427314	11.7247	256.844
427315	11.4812	256.859
427316	11.2378	256.874
427317	10.9943	256.889
427318	10.7508	256.903
427319	10.5073	256.918
427320	10.2638	256.932
427321	10.0202	256.946
427322	9.77669	256.959
427323	9.53313	256.972
427324	9.28956	256.985
427325	9.04598	256.998
427326	8.80238	257.01
427327	8.55877	257.023
427328	8.31516	257.035
427329	8.07153	257.046
427330	7.82789	257.058
427331	7.58423	257.069
427332	7.34057	257.08
427333	7.0969	257.091
427334	6.85322	257.101
427335	6.60952	257.112
427336	6.36582	257.122
427337	6.12211	257.131
427338	5.87839	257.141
427339	5.63466	257.15
427340	5.39092	257.159
427341	5.14717	257.168
427342	4.90342	257.176
427343	4.65966	257.185
427344	4.41588	257.193
427345	4.17211	257.201
427346	3.92832	257.208
427347	3.68453	257.215
427348	3.44073	257.223
427349	3.19693	257.229
427350	2.95311	257.236
427351	2.7093	257.242
427352	2.46547	257.249
427353	2.22164	257.255
427354	1.97781	257.26
427355	1.73397	257.266
427356	1.49013	257.271
427357	1.24628	257.276
427358	1.00242	257.281
427359	0.758565	257.285
427360	0.514703	257.289
427361	0.270837	257.293
427362	0.0269683	257.297
427363	-0.216904	257.301
427364	-0.460779	257.304
427365	-0.704658	257.307
427366	-0.948539	257.31
427367	-1.19242	257.313
427368	-1.43631	257.315
427369	-1.68019	257.317
427370	-1.92408	257.319
427371	-2.16797	257.321
427372	-2.41187	257.322
427373	-2.65576	257.323
427374	-2.89965	257.324
427375	-3.14355	257.325
427376	-3.38744	257.326
427377	-3.63134	257.326
427378	-3.87523	257.326
427379	-4.11913	257.326
427380	-4.36302	257.326
427381	-4.60692	257.325
427382	-4.85081	257.324
427383	-5.0947	257.323
427384	-5.33859	257.322
427385	-5.58248	257.32
427386	-5.82636	257.318
427387	-6.07025	257.316
427388	-6.31413	257.314
427389	-6.55801	257.311
427390	-6.80189	257.308
427391	-7.04576	257.305
427392	-7.28963	257.302
427393	-7.5335	257.299
427394	-7.77736	257.295
427395	-8.02122	257.291
427396	-8.26507	257.287
427397	-8.50893	257.282
427398	-8.75277	257.278
427399	-8.99661	257.273
427400	-9.24045	257.267
427401	-9.48428	257.262
427402	-9.7281	257.256
427403	-9.97192	257.25
427404	-10.2157	257.244
427405	-10.4595	257.238
427406	-10.7033	257.231
427407	-10.9471	257.224
427408	-11.1909	257.217
427409	-11.4347	257.21
427410	-11.6785	257.202
427411	-11.9222	257.194
427412	-12.166	257.186
427413	-12.4097	257.177
427414	-12.6535	257.169
427415	-12.8972	257.16
427416	-13.1409	257.151
427417	-13.3846	257.141
427418	-13.6284	257.131
427419	-13.872	257.121
427420	-14.1157	257.111
427421	-14.3594	257.101
427422	-14.6031	257.09
427423	-14.8467	257.079
427424	-15.0904	257.068
427425	-15.334	257.056
427426	-15.5776	257.044
427427	-15.8212	257.032
427428	-16.0648	257.02
427429	-16.3084	257.007
427430	-16.5519	256.994
427431	-16.7955	256.981
427432	-17.039	256.967
427433	-17.2826	256.954
427434	-17.5261	256.94
427435	-17.7696	256.925
427436	-18.0131	256.911
427437	-18.2565	256.896
427438	-18.5	256.881
427439	-18.7434	256.865
427440	-18.9868	256.849
427441	-19.2303	256.833
427442	-19.4736	256.817
427443	-19.717	256.8
427444	-19.9604	256.783
427445	-20.2037	256.766
427446	-20.447	256.748
427447	-20.6903	256.73
427448	-20.9336	256.712
427449	-21.1769	256.694
427450	-21.4201	256.675
427451	-21.6634	256.656
427452	-21.9066	256.636
427453	-22.1498	256.617
427454	-22.3929	256.597
427455	-22.6361	256.576
427456	-22.8792	256.555
427457	-23.1223	256.534
427458	-23.3654	256.513
427459	-23.6085	256.491
427460	-23.8515	256.469
427461	-24.0945	256.447
427462	-24.3375	256.424
427463	-24.5805	256.401
427464	-24.8234	256.378
427465	-25.0664	256.354
427466	-25.3092	256.33
427467	-25.5521	256.305
427468	-25.795	256.28
427469	-26.0378	256.255
427470	-26.2806	256.23
427471	-26.5233	256.204
427472	-26.7661	256.177
427473	-27.0088	256.151
427474	-27.2515	256.124
427475	-27.4941	256.096
427476	-27.7367	256.068
427477	-27.9793	256.04
427478	-28.2219	256.011
427479	-28.4644	255.982
427480	-28.7069	255.953
427481	-28.9494	255.923
427482	-29.1918	255.893
427483	-29.4342	255.862
427484	-29.6766	255.831
427485	-29.9189	255.8
427486	-30.1613	255.768
427487	-30.4035	255.736
427488	-30.6458	255.703
427489	-30.888	255.67
427490	-31.1301	255.636
427491	-31.3722	255.602
427492	-31.6143	255.568
427493	-31.8564	255.533
427494	-32.0984	255.497
427495	-32.3404	255.461
427496	-32.5823	255.425
427497	-32.8242	255.388
427498	-33.066	255.351
427499	-33.3078	255.313
427500	-33.5496	255.275
427501	-33.7913	255.236
427502	-34.033	255.197
427503	-34.2746	255.157
427504	-34.5162	255.117
427505	-34.7578	255.076
427506	-34.9993	255.035
427507	-35.2407	254.993
427508	-35.4821	254.95
427509	-35.7235	254.907
427510	-35.9648	254.864
427511	-36.206	254.82
427512	-36.4472	254.775
427513	-36.6884	254.73
427514	-36.9295	254.684
427515	-37.1705	254.638
427516	-37.4115	254.591
427517	-37.6525	254.544
427518	-37.8933	254.496
427519	-38.1342	254.447
427520	-38.3749	254.397
427521	-38.6156	254.347
427522	-38.8563	254.297
427523	-39.0969	254.246
427524	-39.3374	254.194
427525	-39.5779	254.141
427526	-39.8183	254.088
427527	-40.0586	254.034
427528	-40.2989	253.98
427529	-40.5391	253.924
427530	-40.7792	253.868
427531	-41.0193	253.812
427532	-41.2593	253.754
427533	-41.4992	253.696
427534	-41.739	253.637
427535	-41.9788	253.578
427536	-42.2185	253.517
427537	-42.4582	253.456
427538	-42.6977	253.394
427539	-42.9372	253.331
427540	-43.1766	253.268
427541	-43.4159	253.203
427542	-43.6551	253.138
427543	-43.8943	253.072
427544	-44.1334	253.005
427545	-44.3723	252.938
427546	-44.6112	252.869
427547	-44.85	252.799
427548	-45.0887	252.729
427549	-45.3274	252.658
427550	-45.5659	252.585
427551	-45.8043	252.512
427552	-46.0426	252.438
427553	-46.2809	252.363
427554	-46.519	252.287
427555	-46.757	252.209
427556	-46.995	252.131
427557	-47.2328	252.052
427558	-47.4705	251.972
427559	-47.7081	251.891
427560	-47.9456	251.808
427561	-48.183	251.725
427562	-48.4203	251.64
427563	-48.6574	251.554
427564	-48.8944	251.467
427565	-49.1313	251.379
427566	-49.3681	251.29
427567	-49.6048	251.199
427568	-49.8413	251.108
427569	-50.0777	251.014
427570	-50.3139	250.92
427571	-50.5501	250.825
427572	-50.7861	250.728
427573	-51.0219	250.629
427574	-51.2576	250.53
427575	-51.4932	250.429
427576	-51.7286	250.326
427577	-51.9638	250.222
427578	-52.1989	250.117
427579	-52.4339	250.01
427580	-52.6686	249.902
427581	-52.9033	249.792
427582	-53.1377	249.681
427583	-53.372	249.568
427584	-53.6061	249.453
427585	-53.84	249.336
427586	-54.0738	249.218
427587	-54.3073	249.099
427588	-54.5407	248.977
427589	-54.7739	248.854
427590	-55.0069	248.729
427591	-55.2397	248.602
427592	-55.4722	248.473
427593	-55.7046	248.342
427594	-55.9368	248.209
427595	-56.1687	248.074
427596	-56.4004	247.938
427597	-56.6319	247.799
427598	-56.8632	247.658
427599	-57.0942	247.515
427600	-57.325	247.369
427601	-57.5555	247.222
427602	-57.7858	247.072
427603	-58.0158	246.919
427604	-58.2456	246.765
427605	-58.4751	246.608
427606	-58.7043	246.448
427607	-58.9333	246.286
427608	-59.1619	246.121
427609	-59.3903	245.954
427610	-59.6183	245.784
427611	-59.8461	245.611
427612	-60.0735	245.435
427613	-60.3006	245.257
427614	-60.5274	245.075
427615	-60.7538	244.891
427616	-60.9799	244.703
427617	-61.2057	244.512
427618	-61.4311	244.319
427619	-61.6561	244.121
427620	-61.8807	243.921
427621	-62.105	243.717
427622	-62.3288	243.51
427623	-62.5523	243.298
427624	-62.7753	243.084
427625	-62.9979	242.865
427626	-63.22	242.643
427627	-63.4417	242.417
427628	-63.663	242.187
427629	-63.8837	241.952
427630	-64.104	241.714
427631	-64.3238	241.471
427632	-64.5431	241.224
427633	-64.7618	240.972
427634	-64.98	240.716
427635	-65.1977	240.455
427636	-65.4148	240.189
427637	-65.6313	239.919
427638	-65.8472	239.643
427639	-66.0625	239.362
427640	-66.2771	239.076
427641	-66.4911	238.784
427642	-66.7045	238.487
427643	-66.9171	238.184
427644	-67.1291	237.875
427645	-67.3403	237.56
427646	-67.5508	237.239
427647	-67.7605	236.912
427648	-67.9694	236.578
427649	-68.1776	236.238
427650	-68.3848	235.891
427651	-68.5913	235.537
427652	-68.7968	235.176
427653	-69.0014	234.808
427654	-69.2051	234.432
427655	-69.4078	234.049
427656	-69.6096	233.657
427657	-69.8103	233.258
427658	-70.0099	232.851
427659	-70.2085	232.435
427660	-70.406	232.01
427661	-70.6023	231.577
427662	-70.7974	231.134
427663	-70.9913	230.683
427664	-71.1839	230.221
427665	-71.3752	229.75
427666	-71.5652	229.269
427667	-71.7538	228.778
427668	-71.9409	228.277
427669	-72.1266	227.764
427670	-72.3108	227.241
427671	-72.4934	226.706
427672	-72.6743	226.161
427673	-72.8536	225.603
427674	-73.0312	225.033
427675	-73.207	224.451
427676	-73.381	223.857
427677	-73.5531	223.25
427678	-73.7232	222.63
427679	-73.8913	221.997
427680	-74.0574	221.35
504000	-63.8217	209.82
504001	-63.9452	209.381
504002	-64.0669	208.937
504003	-64.1869	208.489
504004	-64.3052	208.037
504005	-64.4218	207.58
504006	-64.5366	207.119
504007	-64.6496	206.654
504008	-64.7607	206.184
504009	-64.87	205.71
504010	-64.9775	205.232
504011	-65.083	204.749
504012	-65.1867	204.263
504013	-65.2884	203.772
504014	-65.3881	203.276
504015	-65.4858	202.777
504016	-65.5815	202.274
504017	-65.6752	201.766
504018	-65.7668	201.255
504019	-65.8563	200.739
504020	-65.9437	200.22
504021	-66.029	199.696
504022	-66.1121	199.169
504023	-66.1931	198.638
504024	-66.2718	198.104
504025	-66.3483	197.565
504026	-66.4226	197.023
504027	-66.4946	196.478
504028	-66.5643	195.929
504029	-66.6317	195.377
504030	-66.6967	194.822
504031	-66.7595	194.263
504032	-66.8198	193.702
504033	-66.8778	193.137
504034	-66.9334	192.57
504035	-66.9865	191.999
504036	-67.0372	191.426
504037	-67.0855	190.851
504038	-67.1313	190.273
504039	-67.1746	189.693
504040	-67.2154	189.11
504041	-67.2536	188.526
504042	-67.2894	187.939
504043	-67.3226	187.351
504044	-67.3533	186.761
504045	-67.3814	186.169
504046	-67.407	185.576
504047	-67.4299	184.982
504048	-67.4503	184.386
504049	-67.4681	183.789
504050	-67.4833	183.192
504051	-67.4959	182.593
504052	-67.5058	181.994
504053	-67.5132	181.395
504054	-67.518	180.795
504055	-67.5201	180.195
504056	-67.5196	179.595
504057	-67.5165	178.995
504058	-67.5108	178.396
504059	-67.5025	177.797
504060	-67.4916	177.198
504061	-67.478	176.6
504062	-67.4619	176.002
504063	-67.4431	175.406
504064	-67.4218	174.811
504065	-67.3979	174.217
504066	-67.3714	173.624
504067	-67.3423	173.033
504068	-67.3107	172.444
504069	-67.2766	171.856
504070	-67.2399	171.27
504071	-67.2007	170.687
504072	-67.159	170.105
504073	-67.1148	169.526
504074	-67.0681	168.948
504075	-67.0189	168.374
504076	-66.9673	167.802
504077	-66.9133	167.233
504078	-66.8568	166.666
504079	-66.798	166.103
504080	-66.7368	165.542
504081	-66.6732	164.985
504082	-66.6072	164.431
504083	-66.539	163.88
504084	-66.4684	163.332
504085	-66.3956	162.788
504086	-66.3205	162.248
504087	-66.2432	161.711
504088	-66.1636	161.177
504089	-66.0819	160.648
504090	-65.998	160.122
504091	-65.9119	159.6
504092	-65.8238	159.082
504093	-65.7335	158.568
504094	-65.6411	158.058
504095	-65.5467	157.552
504096	-65.4502	157.05
504097	-65.3518	156.552
504098	-65.2513	156.059
504099	-65.1489	155.569
504100	-65.0446	155.084
504101	-64.9383	154.603
504102	-64.8302	154.126
504103	-64.7202	153.654
504104	-64.6084	153.186
504105	-64.4947	152.722
504106	-64.3793	152.263
504107	-64.2621	151.808
504108	-64.1432	151.357
504109	-64.0225	150.91
504110	-63.9001	150.468
504111	-63.7761	150.031
504112	-63.6505	149.597
504113	-63.5232	149.168
504114	-63.3943	148.743
504115	-63.2638	148.323
504116	-63.1318	147.907
504117	-62.9983	147.495
504118	-62.8632	147.088
504119	-62.7267	146.684
504120	-62.5887	146.285
504121	-62.4492	145.891
504122	-62.3084	145.5
504123	-62.1661	145.114
504124	-62.0225	144.731
504125	-61.8775	144.353
504126	-61.7312	143.979
504127	-61.5836	143.609
504128	-61.4347	143.244
504129	-61.2845	142.882
504130	-61.133	142.524
504131	-60.9804	142.17
504132	-60.8265	141.82
504133	-60.6714	141.474
504134	-60.5152	141.132
504135	-60.3578	140.794
504136	-60.1992	140.459
504137	-60.0396	140.129
504138	-59.8788	139.802
504139	-59.717	139.479
504140	-59.5541	139.159
504141	-59.3901	138.843
504142	-59.2251	138.531
504143	-59.0591	138.222
504144	-58.8921	137.917
504145	-58.7241	137.615
504146	-58.5552	137.317
504147	-58.3853	137.022
504148	-58.2145	136.731
504149	-58.0427	136.443
504150	-57.87	136.158
504151	-57.6965	135.877
504152	-57.5221	135.599
504153	-57.3468	135.324
504154	-57.1707	135.052
504155	-56.9937	134.783
504156	-56.8159	134.518
504157	-56.6373	134.255
504158	-56.4579	133.996
504159	-56.2777	133.739
504160	-56.0968	133.486
504161	-55.9151	133.236
504162	-55.7327	132.988
504163	-55.5495	132.743
504164	-55.3656	132.501
504165	-55.181	132.262
504166	-54.9957	132.026
504167	-54.8097	131.792
504168	-54.6231	131.561
504169	-54.4357	131.333
504170	-54.2478	131.108
504171	-54.0592	130.885
504172	-53.8699	130.664
504173	-53.68	130.446
504174	-53.4895	130.231
504175	-53.2985	130.018
504176	-53.1068	129.808
504177	-52.9145	129.6
504178	-52.7217	129.394
504179	-52.5282	129.191
504180	-52.3343	128.99
504181	-52.1398	128.791
504182	-51.9447	128.595
504183	-51.7491	128.401
504184	-51.553	128.209
504185	-51.3564	128.019
504186	-51.1593	127.832
504187	-50.9617	127.646
504188	-50.7635	127.463
504189	-50.5649	127.282
504190	-50.3659	127.103
504191	-50.1663	126.926
504192	-49.9663	126.751
504193	-49.7659	126.578
504194	-49.5649	126.407
504195	-49.3636	126.237
504196	-49.1618	126.07
504197	-48.9596	125.905
504198	-48.757	125.741
504199	-48.5539	125.58
504200	-48.3505	125.42
504201	-48.1466	125.262
504202	-47.9424	125.106
504203	-47.7378	124.951
504204	-47.5327	124.798
504205	-47.3273	124.647
504206	-47.1216	124.498
504207	-46.9154	124.35
504208	-46.7089	124.204
504209	-46.5021	124.06
504210	-46.2949	123.917
504211	-46.0873	123.776
504212	-45.8794	123.636
504213	-45.6712	123.498
504214	-45.4626	123.362
504215	-45.2538	123.227
504216	-45.0446	123.093
504217	-44.835	122.961
504218	-44.6252	122.831
504219	-44.4151	122.702
504220	-44.2046	122.574
504221	-43.9939	122.448
504222	-43.7829	122.323
504223	-43.5715	122.2
504224	-43.3599	122.078
504225	-43.148	121.957
504226	-42.9359	121.837
504227	-42.7234	121.719
504228	-42.5107	121.603
504229	-42.2978	121.487
504230	-42.0845	121.373
504231	-41.871	121.26
504232	-41.6573	121.148
504233	-41.4433	121.038
504234	-41.2291	120.929
504235	-41.0146	120.821
504236	-40.7998	120.714
504237	-40.5849	120.608
504238	-40.3697	120.504
504239	-40.1543	120.4
504240	-39.9386	120.298
504241	-39.7227	120.197
504242	-39.5066	120.097
504243	-39.2903	119.998
504244	-39.0738	119.9
504245	-38.857	119.804
504246	-38.6401	119.708
504247	-38.4229	119.614
504248	-38.2056	119.52
504249	-37.988	119.428
504250	-37.7703	119.336
504251	-37.5523	119.246
504252	-37.3342	119.156
504253	-37.1159	119.068
504254	-36.8973	118.98
504255	-36.6786	118.894
504256	-36.4598	118.808
504257	-36.2407	118.724
504258	-36.0215	118.64
504259	-35.8021	118.557
504260	-35.5825	118.476
504261	-35.3627	118.395
504262	-35.1428	118.315
504263	-34.9227	118.236
504264	-34.7025	118.157
504265	-34.4821	118.08
504266	-34.2615	118.004
504267	-34.0408	117.928
504268	-33.82	117.853
504269	-33.5989	117.78
504270	-33.3778	117.706
504271	-33.1564	117.634
504272	-32.935	117.563
504273	-32.7134	117.492
504274	-32.4916	117.423
504275	-32.2698	117.354
504276	-32.0477	117.285
504277	-31.8256	117.218
504278	-31.6033	117.151
504279	-31.3809	117.085
504280	-31.1583	117.02
504281	-30.9356	116.956
504282	-30.7128	116.892
504283	-30.4899	116.83
504284	-30.2668	116.767
504285	-30.0436	116.706
504286	-29.8203	116.645
504287	-29.5969	116.585
504288	-29.3734	116.526
504289	-29.1498	116.468
504290	-28.926	116.41
504291	-28.7021	116.353
504292	-28.4781	116.296
504293	-28.2541	116.24
504294	-28.0299	116.185
504295	-27.8056	116.131
504296	-27.5812	116.077
504297	-27.3566	116.024
504298	-27.132	115.971
504299	-26.9073	115.919
504300	-26.6825	115.868
504301	-26.4576	115.818
504302	-26.2326	115.768
504303	-26.0075	115.718
504304	-25.7823	115.67
504305	-25.5571	115.622
504306	-25.3317	115.574
504307	-25.1062	115.527
504308	-24.8807	115.481
504309	-24.6551	115.435
504310	-24.4294	115.39
504311	-24.2036	115.346
504312	-23.9777	115.302
504313	-23.7517	115.259
504314	-23.5257	115.216
504315	-23.2996	115.174
504316	-23.0734	115.132
504317	-22.8471	115.091
504318	-22.6207	115.051
504319	-22.3943	115.011
504320	-22.1678	114.972
504321	-21.9412	114.933
504322	-21.7146	114.895
504323	-21.4879	114.857
504324	-21.2611	114.82
504325	-21.0343	114.783
504326	-20.8074	114.747
504327	-20.5804	114.711
504328	-20.3533	114.676
504329	-20.1262	114.642
504330	-19.8991	114.608
504331	-19.6718	114.574
504332	-19.4446	114.541
504333	-19.2172	114.509
504334	-18.9898	114.477
504335	-18.7623	114.445
504336	-18.5348	114.414
504337	-18.3073	114.384
504338	-18.0796	114.354
504339	-17.8519	114.325
504340	-17.6242	114.296
504341	-17.3964	114.267
504342	-17.1686	114.239
504343	-16.9407	114.211
504344	-16.7128	114.184
504345	-16.4848	114.158
504346	-16.2567	114.132
504347	-16.0287	114.106
504348	-15.8005	114.081
504349	-15.5724	114.056
504350	-15.3442	114.032
504351	-15.1159	114.008
504352	-14.8876	113.985
504353	-14.6593	113.962
504354	-14.4309	113.94
504355	-14.2025	113.918
504356	-13.974	113.896
504357	-13.7456	113.875
504358	-13.517	113.854
504359	-13.2885	113.834
504360	-13.0599	113.815
504361	-12.8312	113.795
504362	-12.6026	113.776
504363	-12.3739	113.758
504364	-12.1451	113.74
504365	-11.9164	113.723
504366	-11.6876	113.706
504367	-11.4588	113.689
504368	-11.2299	113.673
504369	-11.001	113.657
504370	-10.7721	113.641
504371	-10.5432	113.627
504372	-10.3143	113.612
504373	-10.0853	113.598
504374	-9.85626	113.584
504375	-9.62723	113.571
504376	-9.39818	113.558
504377	-9.16911	113.546
504378	-8.94001	113.534
504379	-8.71089	113.522
