Time [min]	Location.AzimuthAngle [Deg]	Location.ElevationAngle [Deg]
90720	250.125	-71.1056
90721	249.878	-71.3406
90722	249.625	-71.5753
90723	249.365	-71.8095
90724	249.098	-72.0434
90725	248.824	-72.2768
90726	248.542	-72.5098
90727	248.253	-72.7424
90728	247.955	-72.9744
90729	247.649	-73.206
90730	247.334	-73.4371
90731	247.011	-73.6676
90732	246.677	-73.8975
90733	246.334	-74.1269
90734	245.981	-74.3557
90735	245.617	-74.5838
90736	245.242	-74.8113
90737	244.855	-75.0381
90738	244.456	-75.2642
90739	244.045	-75.4895
90740	243.62	-75.714
90741	243.182	-75.9376
90742	242.729	-76.1604
90743	242.262	-76.3823
90744	241.778	-76.6032
90745	241.278	-76.8231
90746	240.761	-77.0419
90747	240.227	-77.2596
90748	239.673	-77.4762
90749	239.1	-77.6915
90750	238.506	-77.9054
90751	237.89	-78.1181
90752	237.252	-78.3292
90753	236.59	-78.5389
90754	235.904	-78.7469
90755	235.191	-78.9532
90756	234.452	-79.1577
90757	233.683	-79.3603
90758	232.885	-79.5608
90759	232.055	-79.7593
90760	231.193	-79.9554
90761	230.296	-80.1492
90762	229.363	-80.3404
90763	228.392	-80.5289
90764	227.382	-80.7146
90765	226.331	-80.8972
90766	225.237	-81.0765
90767	224.098	-81.2525
90768	222.913	-81.4248
90769	221.679	-81.5933
90770	220.396	-81.7576
90771	219.06	-81.9176
90772	217.671	-82.073
90773	216.228	-82.2235
90774	214.728	-82.3688
90775	213.17	-82.5087
90776	211.555	-82.6428
90777	209.88	-82.7707
90778	208.147	-82.8922
90779	206.354	-83.0069
90780	204.504	-83.1145
90781	202.597	-83.2147
90782	200.635	-83.307
90783	198.62	-83.3913
90784	196.555	-83.4671
90785	194.445	-83.5342
90786	192.293	-83.5923
90787	190.105	-83.6411
90788	187.887	-83.6804
90789	185.644	-83.7102
90790	183.383	-83.7301
90791	181.111	-83.7402
90792	178.836	-83.7403
90793	176.564	-83.7306
90794	174.302	-83.7109
90795	172.059	-83.6815
90796	169.839	-83.6424
90797	167.65	-83.5939
90798	165.497	-83.5361
90799	163.386	-83.4693
90800	161.32	-83.3937
90801	159.303	-83.3097
90802	157.339	-83.2176
90803	155.43	-83.1177
90804	153.578	-83.0103
90805	151.784	-82.8958
90806	150.049	-82.7745
90807	148.373	-82.6467
90808	146.755	-82.5128
90809	145.196	-82.3731
90810	143.694	-82.228
90811	142.249	-82.0776
90812	140.858	-81.9224
90813	139.521	-81.7625
90814	138.236	-81.5983
90815	137.001	-81.4299
90816	135.814	-81.2577
90817	134.674	-81.0819
90818	133.579	-80.9026
90819	132.526	-80.7201
90820	131.515	-80.5345
90821	130.543	-80.3461
90822	129.609	-80.1549
90823	128.711	-79.9613
90824	127.847	-79.7652
90825	127.017	-79.5668
90826	126.217	-79.3663
90827	125.448	-79.1637
90828	124.707	-78.9593
90829	123.994	-78.753
90830	123.307	-78.545
90831	122.644	-78.3355
90832	122.005	-78.1243
90833	121.389	-77.9117
90834	120.795	-77.6978
90835	120.221	-77.4825
90836	119.666	-77.266
90837	119.131	-77.0483
90838	118.613	-76.8295
90839	118.113	-76.6096
90840	117.629	-76.3888
90841	117.161	-76.1669
90842	116.708	-75.9441
90843	116.269	-75.7205
90844	115.844	-75.496
90845	115.432	-75.2707
90846	115.033	-75.0447
90847	114.646	-74.8179
90848	114.27	-74.5904
90849	113.906	-74.3623
90850	113.552	-74.1335
90851	113.209	-73.9042
90852	112.875	-73.6742
90853	112.551	-73.4437
90854	112.236	-73.2126
90855	111.93	-72.981
90856	111.632	-72.749
90857	111.342	-72.5164
90858	111.06	-72.2834
90859	110.786	-72.05
90860	110.519	-71.8162
90861	110.258	-71.5819
90862	110.005	-71.3473
90863	109.758	-71.1122
90864	109.517	-70.8769
90865	109.282	-70.6411
90866	109.053	-70.4051
90867	108.83	-70.1687
90868	108.612	-69.932
90869	108.399	-69.695
90870	108.192	-69.4577
90871	107.989	-69.2201
90872	107.791	-68.9823
90873	107.598	-68.7442
90874	107.409	-68.5058
90875	107.224	-68.2672
90876	107.044	-68.0284
90877	106.867	-67.7893
90878	106.695	-67.55
90879	106.526	-67.3105
90880	106.361	-67.0708
90881	106.199	-66.8309
90882	106.041	-66.5907
90883	105.887	-66.3504
90884	105.735	-66.11
90885	105.587	-65.8693
90886	105.442	-65.6285
90887	105.3	-65.3875
90888	105.16	-65.1463
90889	105.024	-64.905
90890	104.89	-64.6635
90891	104.759	-64.4219
90892	104.631	-64.1801
90893	104.505	-63.9382
90894	104.381	-63.6962
90895	104.26	-63.454
90896	104.141	-63.2117
90897	104.025	-62.9692
90898	103.91	-62.7267
90899	103.798	-62.484
90900	103.688	-62.2412
90901	103.58	-61.9983
90902	103.474	-61.7553
90903	103.37	-61.5121
90904	103.267	-61.2689
90905	103.167	-61.0256
90906	103.068	-60.7821
90907	102.972	-60.5386
90908	102.876	-60.295
90909	102.783	-60.0513
90910	102.691	-59.8075
90911	102.601	-59.5636
90912	102.512	-59.3196
90913	102.425	-59.0755
90914	102.339	-58.8314
90915	102.255	-58.5872
90916	102.172	-58.3429
90917	102.091	-58.0985
90918	102.011	-57.854
90919	101.932	-57.6095
90920	101.855	-57.3649
90921	101.779	-57.1203
90922	101.704	-56.8755
90923	101.63	-56.6307
90924	101.557	-56.3859
90925	101.486	-56.1409
90926	101.416	-55.8959
90927	101.347	-55.6509
90928	101.279	-55.4058
90929	101.212	-55.1606
90930	101.146	-54.9154
90931	101.081	-54.6701
90932	101.017	-54.4248
90933	100.954	-54.1794
90934	100.892	-53.934
90935	100.831	-53.6885
90936	100.771	-53.4429
90937	100.712	-53.1973
90938	100.654	-52.9517
90939	100.597	-52.706
90940	100.54	-52.4603
90941	100.485	-52.2145
90942	100.43	-51.9687
90943	100.376	-51.7228
90944	100.323	-51.4769
90945	100.27	-51.231
90946	100.219	-50.985
90947	100.168	-50.739
90948	100.117	-50.4929
90949	100.068	-50.2468
90950	100.019	-50.0007
90951	99.9713	-49.7545
90952	99.924	-49.5083
90953	99.8774	-49.262
90954	99.8314	-49.0157
90955	99.7861	-48.7694
90956	99.7414	-48.5231
90957	99.6974	-48.2767
90958	99.6539	-48.0302
90959	99.6111	-47.7838
90960	99.5689	-47.5373
90961	99.5273	-47.2908
90962	99.4863	-47.0443
90963	99.4458	-46.7977
90964	99.4059	-46.5511
90965	99.3665	-46.3045
90966	99.3277	-46.0578
90967	99.2895	-45.8111
90968	99.2517	-45.5644
90969	99.2145	-45.3177
90970	99.1778	-45.0709
90971	99.1416	-44.8241
90972	99.1059	-44.5773
90973	99.0706	-44.3304
90974	99.0359	-44.0836
90975	99.0016	-43.8367
90976	98.9678	-43.5898
90977	98.9345	-43.3428
90978	98.9016	-43.0959
90979	98.8691	-42.8489
90980	98.8371	-42.6019
90981	98.8055	-42.3549
90982	98.7744	-42.1078
90983	98.7437	-41.8607
90984	98.7134	-41.6137
90985	98.6835	-41.3666
90986	98.654	-41.1194
90987	98.6249	-40.8723
90988	98.5961	-40.6251
90989	98.5678	-40.3779
90990	98.5399	-40.1307
90991	98.5123	-39.8835
90992	98.4851	-39.6363
90993	98.4583	-39.389
90994	98.4318	-39.1417
90995	98.4057	-38.8944
90996	98.38	-38.6471
90997	98.3545	-38.3998
90998	98.3295	-38.1525
90999	98.3048	-37.9051
91000	98.2804	-37.6577
91001	98.2563	-37.4104
91002	98.2325	-37.1629
91003	98.2091	-36.9155
91004	98.186	-36.6681
91005	98.1632	-36.4206
91006	98.1408	-36.1732
91007	98.1186	-35.9257
91008	98.0967	-35.6782
91009	98.0752	-35.4307
91010	98.0539	-35.1832
91011	98.0329	-34.9357
91012	98.0122	-34.6881
91013	97.9918	-34.4406
91014	97.9717	-34.193
91015	97.9518	-33.9454
91016	97.9322	-33.6978
91017	97.9129	-33.4502
91018	97.8939	-33.2026
91019	97.8752	-32.955
91020	97.8567	-32.7074
91021	97.8384	-32.4597
91022	97.8204	-32.212
91023	97.8027	-31.9644
91024	97.7852	-31.7167
91025	97.768	-31.469
91026	97.751	-31.2213
91027	97.7343	-30.9736
91028	97.7178	-30.7259
91029	97.7015	-30.4781
91030	97.6855	-30.2304
91031	97.6697	-29.9826
91032	97.6542	-29.7349
91033	97.6389	-29.4871
91034	97.6238	-29.2393
91035	97.6089	-28.9915
91036	97.5942	-28.7437
91037	97.5798	-28.4959
91038	97.5656	-28.2481
91039	97.5516	-28.0003
91040	97.5379	-27.7525
91041	97.5243	-27.5046
91042	97.5109	-27.2568
91043	97.4978	-27.0089
91044	97.4849	-26.7611
91045	97.4721	-26.5132
91046	97.4596	-26.2653
91047	97.4473	-26.0174
91048	97.4352	-25.7696
91049	97.4233	-25.5217
91050	97.4115	-25.2738
91051	97.4	-25.0258
91052	97.3887	-24.7779
91053	97.3775	-24.53
91054	97.3666	-24.2821
91055	97.3558	-24.0341
91056	97.3452	-23.7862
91057	97.3348	-23.5382
91058	97.3246	-23.2903
91059	97.3146	-23.0423
91060	97.3047	-22.7944
91061	97.2951	-22.5464
91062	97.2856	-22.2984
91063	97.2763	-22.0504
91064	97.2671	-21.8025
91065	97.2582	-21.5545
91066	97.2494	-21.3065
91067	97.2408	-21.0585
91068	97.2323	-20.8105
91069	97.2241	-20.5624
91070	97.216	-20.3144
91071	97.208	-20.0664
91072	97.2002	-19.8184
91073	97.1926	-19.5703
91074	97.1852	-19.3223
91075	97.1779	-19.0743
91076	97.1708	-18.8262
91077	97.1639	-18.5782
91078	97.1571	-18.3301
91079	97.1505	-18.0821
91080	97.144	-17.834
91081	97.1377	-17.586
91082	97.1315	-17.3379
91083	97.1255	-17.0898
91084	97.1197	-16.8418
91085	97.114	-16.5937
91086	97.1084	-16.3456
91087	97.1031	-16.0975
91088	97.0978	-15.8494
91089	97.0927	-15.6013
91090	97.0878	-15.3533
91091	97.083	-15.1052
91092	97.0784	-14.8571
91093	97.0739	-14.609
91094	97.0696	-14.3609
91095	97.0654	-14.1128
91096	97.0614	-13.8647
91097	97.0575	-13.6165
91098	97.0537	-13.3684
91099	97.0501	-13.1203
91100	97.0466	-12.8722
91101	97.0433	-12.6241
91102	97.0401	-12.376
91103	97.0371	-12.1279
91104	97.0342	-11.8797
91105	97.0315	-11.6316
91106	97.0289	-11.3835
91107	97.0264	-11.1354
91108	97.0241	-10.8872
91109	97.0219	-10.6391
91110	97.0198	-10.391
91111	97.0179	-10.1428
91112	97.0161	-9.89471
91113	97.0145	-9.64657
91114	97.013	-9.39844
91115	97.0116	-9.1503
91116	97.0104	-8.90217
91117	97.0093	-8.65403
91118	97.0084	-8.40589
91119	97.0075	-8.15775
91120	97.0069	-7.90961
91121	97.0063	-7.66147
91122	97.0059	-7.41333
91123	97.0056	-7.16519
91124	97.0055	-6.91705
91125	97.0055	-6.66891
91126	97.0056	-6.42077
91127	97.0058	-6.17263
91128	97.0062	-5.92449
91129	97.0068	-5.67635
91130	97.0074	-5.42821
91131	97.0082	-5.18007
91132	97.0091	-4.93193
91133	97.0102	-4.68379
91134	97.0114	-4.43565
91135	97.0127	-4.18751
91136	97.0142	-3.93937
91137	97.0157	-3.69123
91138	97.0175	-3.44309
91139	97.0193	-3.19496
91140	97.0213	-2.94682
91141	97.0234	-2.69869
91142	97.0257	-2.45056
91143	97.0281	-2.20242
91144	97.0306	-1.95429
91145	97.0332	-1.70616
91146	97.036	-1.45803
91147	97.0389	-1.20991
91148	97.0419	-0.961782
91149	97.0451	-0.713658
91150	97.0484	-0.465535
91151	97.0519	-0.217415
91152	97.0554	0.0307045
91153	97.0592	0.278822
91154	97.063	0.526937
91155	97.067	0.775051
91156	97.0711	1.02316
91157	97.0753	1.27127
91158	97.0797	1.51938
91159	97.0842	1.76748
91160	97.0888	2.01559
91161	97.0936	2.26369
91162	97.0985	2.51178
91163	97.1036	2.75988
91164	97.1088	3.00797
91165	97.1141	3.25606
91166	97.1195	3.50415
91167	97.1251	3.75223
91168	97.1309	4.00031
91169	97.1367	4.24839
91170	97.1427	4.49647
91171	97.1489	4.74454
91172	97.1551	4.99261
91173	97.1615	5.24067
91174	97.1681	5.48874
91175	97.1748	5.7368
91176	97.1816	5.98485
91177	97.1886	6.2329
91178	97.1957	6.48095
91179	97.2029	6.729
91180	97.2103	6.97704
91181	97.2179	7.22507
91182	97.2255	7.4731
91183	97.2334	7.72113
91184	97.2413	7.96916
91185	97.2494	8.21718
91186	97.2577	8.46519
91187	97.2661	8.7132
91188	97.2746	8.96121
91189	97.2833	9.20921
91190	97.2921	9.45721
91191	97.3011	9.7052
91192	97.3102	9.95319
91193	97.3195	10.2012
91194	97.3289	10.4491
91195	97.3385	10.6971
91196	97.3483	10.9451
91197	97.3581	11.193
91198	97.3682	11.441
91199	97.3783	11.689
91200	97.3887	11.9369
91201	97.3992	12.1848
91202	97.4098	12.4328
91203	97.4206	12.6807
91204	97.4316	12.9286
91205	97.4427	13.1765
91206	97.454	13.4245
91207	97.4654	13.6724
91208	97.477	13.9203
91209	97.4888	14.1681
91210	97.5007	14.416
91211	97.5128	14.6639
91212	97.5251	14.9118
91213	97.5375	15.1596
91214	97.5501	15.4075
91215	97.5628	15.6553
91216	97.5757	15.9032
91217	97.5888	16.151
91218	97.6021	16.3988
91219	97.6155	16.6467
91220	97.6291	16.8945
91221	97.6429	17.1423
91222	97.6569	17.3901
91223	97.671	17.6379
91224	97.6853	17.8857
91225	97.6998	18.1334
91226	97.7145	18.3812
91227	97.7293	18.6289
91228	97.7444	18.8767
91229	97.7596	19.1244
91230	97.775	19.3722
91231	97.7906	19.6199
91232	97.8064	19.8676
91233	97.8223	20.1153
91234	97.8385	20.363
91235	97.8549	20.6107
91236	97.8714	20.8583
91237	97.8882	21.106
91238	97.9051	21.3537
91239	97.9223	21.6013
91240	97.9396	21.8489
91241	97.9572	22.0966
91242	97.9749	22.3442
91243	97.9929	22.5918
91244	98.0111	22.8394
91245	98.0294	23.0869
91246	98.048	23.3345
91247	98.0668	23.5821
91248	98.0859	23.8296
91249	98.1051	24.0772
91250	98.1246	24.3247
91251	98.1442	24.5722
91252	98.1642	24.8197
91253	98.1843	25.0672
91254	98.2046	25.3147
91255	98.2252	25.5621
91256	98.2461	25.8096
91257	98.2671	26.057
91258	98.2884	26.3044
91259	98.3099	26.5518
91260	98.3317	26.7992
91261	98.3537	27.0466
91262	98.376	27.294
91263	98.3985	27.5413
91264	98.4212	27.7887
91265	98.4443	28.036
91266	98.4675	28.2833
91267	98.491	28.5306
91268	98.5148	28.7779
91269	98.5389	29.0252
91270	98.5632	29.2724
91271	98.5878	29.5197
91272	98.6127	29.7669
91273	98.6378	30.0141
91274	98.6632	30.2613
91275	98.6889	30.5084
91276	98.7149	30.7556
91277	98.7411	31.0027
91278	98.7677	31.2498
91279	98.7946	31.4969
91280	98.8217	31.744
91281	98.8492	31.9911
91282	98.8769	32.2381
91283	98.905	32.4852
91284	98.9333	32.7322
91285	98.962	32.9792
91286	98.991	33.2261
91287	99.0204	33.4731
91288	99.05	33.72
91289	99.08	33.9669
91290	99.1103	34.2138
91291	99.141	34.4607
91292	99.172	34.7076
91293	99.2033	34.9544
91294	99.235	35.2012
91295	99.2671	35.448
91296	99.2995	35.6947
91297	99.3322	35.9415
91298	99.3654	36.1882
91299	99.3989	36.4349
91300	99.4328	36.6815
91301	99.4671	36.9282
91302	99.5017	37.1748
91303	99.5368	37.4214
91304	99.5722	37.668
91305	99.6081	37.9145
91306	99.6443	38.161
91307	99.681	38.4075
91308	99.7181	38.654
91309	99.7556	38.9004
91310	99.7936	39.1468
91311	99.832	39.3932
91312	99.8708	39.6396
91313	99.9101	39.8859
91314	99.9498	40.1322
91315	99.99	40.3785
91316	100.031	40.6247
91317	100.072	40.8709
91318	100.113	41.1171
91319	100.156	41.3632
91320	100.198	41.6093
91321	100.241	41.8554
91322	100.285	42.1014
91323	100.329	42.3475
91324	100.374	42.5934
91325	100.419	42.8394
91326	100.465	43.0853
91327	100.511	43.3311
91328	100.558	43.577
91329	100.605	43.8228
91330	100.653	44.0685
91331	100.702	44.3142
91332	100.751	44.5599
91333	100.8	44.8055
91334	100.851	45.0511
91335	100.902	45.2967
91336	100.953	45.5422
91337	101.006	45.7877
91338	101.059	46.0331
91339	101.112	46.2785
91340	101.166	46.5238
91341	101.221	46.7691
91342	101.277	47.0144
91343	101.333	47.2596
91344	101.39	47.5047
91345	101.448	47.7498
91346	101.506	47.9949
91347	101.566	48.2399
91348	101.626	48.4848
91349	101.687	48.7297
91350	101.748	48.9746
91351	101.81	49.2193
91352	101.874	49.4641
91353	101.938	49.7087
91354	102.003	49.9534
91355	102.068	50.1979
91356	102.135	50.4424
91357	102.203	50.6869
91358	102.271	50.9312
91359	102.341	51.1755
91360	102.411	51.4198
91361	102.482	51.664
91362	102.554	51.9081
91363	102.628	52.1521
91364	102.702	52.3961
91365	102.777	52.64
91366	102.854	52.8838
91367	102.931	53.1276
91368	103.01	53.3713
91369	103.09	53.6149
91370	103.171	53.8584
91371	103.253	54.1018
91372	103.336	54.3452
91373	103.42	54.5885
91374	103.506	54.8317
91375	103.593	55.0748
91376	103.681	55.3178
91377	103.771	55.5607
91378	103.862	55.8035
91379	103.954	56.0463
91380	104.047	56.2889
91381	104.143	56.5314
91382	104.239	56.7739
91383	104.337	57.0162
91384	104.437	57.2584
91385	104.538	57.5005
91386	104.641	57.7426
91387	104.745	57.9844
91388	104.851	58.2262
91389	104.959	58.4679
91390	105.068	58.7094
91391	105.179	58.9508
91392	105.292	59.1921
91393	105.407	59.4333
91394	105.524	59.6743
91395	105.643	59.9152
91396	105.764	60.1559
91397	105.886	60.3965
91398	106.011	60.637
91399	106.138	60.8773
91400	106.267	61.1174
91401	106.399	61.3574
91402	106.533	61.5972
91403	106.669	61.8369
91404	106.807	62.0763
91405	106.948	62.3157
91406	107.092	62.5548
91407	107.238	62.7937
91408	107.387	63.0325
91409	107.538	63.2711
91410	107.692	63.5094
91411	107.85	63.7476
91412	108.01	63.9855
91413	108.173	64.2232
91414	108.339	64.4607
91415	108.509	64.698
91416	108.682	64.935
91417	108.858	65.1718
91418	109.038	65.4084
91419	109.221	65.6447
91420	109.408	65.8807
91421	109.599	66.1164
91422	109.793	66.3519
91423	109.992	66.5871
91424	110.195	66.8219
91425	110.402	67.0565
91426	110.613	67.2908
91427	110.829	67.5247
91428	111.049	67.7583
91429	111.274	67.9915
91430	111.504	68.2244
91431	111.74	68.4569
91432	111.98	68.689
91433	112.226	68.9208
91434	112.477	69.1521
91435	112.734	69.383
91436	112.997	69.6135
91437	113.266	69.8435
91438	113.542	70.073
91439	113.824	70.3021
91440	114.112	70.5306
91441	114.408	70.7587
91442	114.711	70.9862
91443	115.021	71.2131
91444	115.339	71.4395
91445	115.664	71.6652
91446	115.998	71.8904
91447	116.341	72.1149
91448	116.692	72.3387
91449	117.053	72.5618
91450	117.423	72.7842
91451	117.802	73.0059
91452	118.192	73.2267
91453	118.592	73.4468
91454	119.003	73.666
91455	119.426	73.8843
91456	119.86	74.1018
91457	120.306	74.3182
91458	120.765	74.5337
91459	121.236	74.7481
91460	121.722	74.9615
91461	122.221	75.1737
91462	122.735	75.3848
91463	123.264	75.5946
91464	123.809	75.8031
91465	124.37	76.0103
91466	124.948	76.2161
91467	125.544	76.4204
91468	126.158	76.6232
91469	126.791	76.8244
91470	127.443	77.024
91471	128.116	77.2217
91472	128.81	77.4177
91473	129.526	77.6117
91474	130.265	77.8036
91475	131.027	77.9935
91476	131.814	78.1812
91477	132.627	78.3665
91478	133.465	78.5494
91479	134.331	78.7297
91480	135.225	78.9074
91481	136.147	79.0822
91482	137.1	79.2541
91483	138.084	79.4229
91484	139.099	79.5885
91485	140.147	79.7507
91486	141.228	79.9093
91487	142.343	80.0642
91488	143.494	80.2151
91489	144.68	80.362
91490	145.902	80.5046
91491	147.161	80.6427
91492	148.458	80.7761
91493	149.792	80.9046
91494	151.163	81.0281
91495	152.572	81.1462
91496	154.018	81.2588
91497	155.501	81.3657
91498	157.021	81.4666
91499	158.575	81.5613
91500	160.164	81.6496
91501	161.786	81.7314
91502	163.438	81.8064
91503	165.12	81.8744
91504	166.829	81.9352
91505	168.562	81.9888
91506	170.317	82.0349
91507	172.091	82.0734
91508	173.88	82.1042
91509	175.682	82.1272
91510	177.492	82.1423
91511	179.308	82.1496
91512	181.125	82.1489
91513	182.94	82.1403
91514	184.749	82.1238
91515	186.549	82.0995
91516	188.336	82.0673
91517	190.107	82.0275
91518	191.858	81.9802
91519	193.587	81.9254
91520	195.292	81.8633
91521	196.969	81.7941
91522	198.616	81.7179
91523	200.233	81.635
91524	201.816	81.5456
91525	203.364	81.4498
91526	204.878	81.3478
91527	206.354	81.24
91528	207.794	81.1264
91529	209.197	81.0074
91530	210.562	80.883
91531	211.889	80.7536
91532	213.179	80.6194
91533	214.432	80.4805
91534	215.649	80.3372
91535	216.829	80.1896
91536	217.973	80.038
91537	219.083	79.8824
91538	220.158	79.7232
91539	221.2	79.5604
91540	222.21	79.3943
91541	223.188	79.2249
91542	224.136	79.0525
91543	225.053	78.8772
91544	225.942	78.6991
91545	226.803	78.5183
91546	227.637	78.3349
91547	228.445	78.1492
91548	229.228	77.9612
91549	229.987	77.7709
91550	230.722	77.5786
91551	231.434	77.3842
91552	232.124	77.188
91553	232.794	76.9899
91554	233.443	76.7901
91555	234.072	76.5886
91556	234.683	76.3855
91557	235.276	76.1809
91558	235.851	75.9749
91559	236.409	75.7674
91560	236.951	75.5587
91561	237.478	75.3486
91562	237.989	75.1374
91563	238.486	74.9249
91564	238.969	74.7114
91565	239.439	74.4968
91566	239.896	74.2811
91567	240.34	74.0645
91568	240.772	73.8469
91569	241.192	73.6284
91570	241.602	73.409
91571	242	73.1888
91572	242.388	72.9678
91573	242.766	72.746
91574	243.134	72.5234
91575	243.493	72.3002
91576	243.843	72.0762
91577	244.184	71.8516
91578	244.517	71.6264
91579	244.841	71.4005
91580	245.158	71.174
91581	245.467	70.947
91582	245.768	70.7194
91583	246.063	70.4912
91584	246.35	70.2626
91585	246.631	70.0334
91586	246.906	69.8038
91587	247.174	69.5737
91588	247.436	69.3431
91589	247.692	69.1121
91590	247.942	68.8807
91591	248.187	68.6489
91592	248.427	68.4167
91593	248.661	68.1841
91594	248.891	67.9512
91595	249.115	67.7178
91596	249.335	67.4842
91597	249.55	67.2502
91598	249.76	67.0159
91599	249.967	66.7812
91600	250.169	66.5463
91601	250.367	66.311
91602	250.561	66.0755
91603	250.751	65.8397
91604	250.937	65.6036
91605	251.12	65.3673
91606	251.299	65.1307
91607	251.475	64.8938
91608	251.647	64.6567
91609	251.816	64.4194
91610	251.982	64.1818
91611	252.145	63.944
91612	252.305	63.706
91613	252.462	63.4678
91614	252.616	63.2294
91615	252.767	62.9908
91616	252.915	62.752
91617	253.061	62.513
91618	253.204	62.2738
91619	253.345	62.0345
91620	253.483	61.7949
91621	253.619	61.5552
91622	253.752	61.3154
91623	253.883	61.0753
91624	254.012	60.8351
91625	254.139	60.5948
91626	254.264	60.3543
91627	254.386	60.1136
91628	254.507	59.8729
91629	254.625	59.6319
91630	254.742	59.3909
91631	254.856	59.1497
91632	254.969	58.9083
91633	255.08	58.6669
91634	255.189	58.4253
91635	255.297	58.1836
91636	255.403	57.9418
91637	255.507	57.6998
91638	255.609	57.4578
91639	255.71	57.2156
91640	255.81	56.9734
91641	255.908	56.731
91642	256.004	56.4885
91643	256.099	56.2459
91644	256.193	56.0033
91645	256.285	55.7605
91646	256.376	55.5176
91647	256.465	55.2746
91648	256.553	55.0316
91649	256.64	54.7885
91650	256.726	54.5452
91651	256.81	54.3019
91652	256.893	54.0585
91653	256.975	53.815
91654	257.056	53.5715
91655	257.135	53.3278
91656	257.214	53.0841
91657	257.291	52.8403
91658	257.368	52.5964
91659	257.443	52.3525
91660	257.517	52.1085
91661	257.591	51.8644
91662	257.663	51.6202
91663	257.734	51.376
91664	257.804	51.1317
91665	257.874	50.8874
91666	257.942	50.643
91667	258.01	50.3985
91668	258.076	50.1539
91669	258.142	49.9094
91670	258.207	49.6647
91671	258.271	49.42
91672	258.334	49.1752
91673	258.397	48.9304
91674	258.458	48.6855
91675	258.519	48.4406
91676	258.579	48.1956
91677	258.638	47.9505
91678	258.697	47.7054
91679	258.755	47.4603
91680	258.812	47.2151
91681	258.868	46.9699
91682	258.924	46.7246
91683	258.979	46.4793
91684	259.033	46.2339
91685	259.087	45.9885
91686	259.14	45.743
91687	259.192	45.4975
91688	259.243	45.2519
91689	259.294	45.0063
91690	259.345	44.7607
91691	259.395	44.515
91692	259.444	44.2693
91693	259.493	44.0235
91694	259.541	43.7777
91695	259.588	43.5319
91696	259.635	43.286
91697	259.681	43.0401
91698	259.727	42.7942
91699	259.772	42.5482
91700	259.817	42.3022
91701	259.861	42.0561
91702	259.905	41.81
91703	259.948	41.5639
91704	259.991	41.3178
91705	260.033	41.0716
91706	260.075	40.8254
91707	260.116	40.5791
91708	260.157	40.3328
91709	260.197	40.0865
91710	260.237	39.8402
91711	260.276	39.5938
91712	260.315	39.3474
91713	260.354	39.101
91714	260.392	38.8545
91715	260.429	38.608
91716	260.467	38.3615
91717	260.503	38.115
91718	260.54	37.8684
91719	260.576	37.6218
91720	260.611	37.3752
91721	260.647	37.1286
91722	260.681	36.8819
91723	260.716	36.6352
91724	260.75	36.3885
91725	260.783	36.1418
91726	260.817	35.895
91727	260.85	35.6482
91728	260.882	35.4014
91729	260.914	35.1546
91730	260.946	34.9077
91731	260.978	34.6609
91732	261.009	34.414
91733	261.04	34.167
91734	261.07	33.9201
91735	261.1	33.6731
91736	261.13	33.4262
91737	261.16	33.1792
91738	261.189	32.9321
91739	261.218	32.6851
91740	261.246	32.438
91741	261.274	32.191
91742	261.302	31.9439
91743	261.33	31.6967
91744	261.357	31.4496
91745	261.384	31.2025
91746	261.411	30.9553
91747	261.438	30.7081
91748	261.464	30.4609
91749	261.49	30.2137
91750	261.515	29.9664
91751	261.541	29.7192
91752	261.566	29.4719
91753	261.59	29.2246
91754	261.615	28.9773
91755	261.639	28.73
91756	261.663	28.4826
91757	261.687	28.2353
91758	261.71	27.9879
91759	261.734	27.7405
91760	261.757	27.4932
91761	261.779	27.2457
91762	261.802	26.9983
91763	261.824	26.7509
91764	261.846	26.5034
91765	261.868	26.256
91766	261.889	26.0085
91767	261.911	25.761
91768	261.932	25.5135
91769	261.952	25.266
91770	261.973	25.0184
91771	261.993	24.7709
91772	262.014	24.5233
91773	262.034	24.2758
91774	262.053	24.0282
91775	262.073	23.7806
91776	262.092	23.533
91777	262.111	23.2854
91778	262.13	23.0377
91779	262.148	22.7901
91780	262.167	22.5424
91781	262.185	22.2948
91782	262.203	22.0471
91783	262.221	21.7994
91784	262.239	21.5517
91785	262.256	21.304
91786	262.273	21.0563
91787	262.29	20.8086
91788	262.307	20.5608
91789	262.324	20.3131
91790	262.34	20.0653
91791	262.356	19.8176
91792	262.372	19.5698
91793	262.388	19.322
91794	262.404	19.0742
91795	262.42	18.8264
91796	262.435	18.5786
91797	262.45	18.3308
91798	262.465	18.083
91799	262.48	17.8351
91800	262.494	17.5873
91801	262.509	17.3394
91802	262.523	17.0916
91803	262.537	16.8437
91804	262.551	16.5958
91805	262.565	16.3479
91806	262.578	16.1
91807	262.592	15.8521
91808	262.605	15.6042
91809	262.618	15.3563
91810	262.631	15.1084
91811	262.644	14.8604
91812	262.656	14.6125
91813	262.669	14.3645
91814	262.681	14.1166
91815	262.693	13.8686
91816	262.705	13.6207
91817	262.717	13.3727
91818	262.729	13.1247
91819	262.74	12.8767
91820	262.751	12.6287
91821	262.762	12.3807
91822	262.773	12.1327
91823	262.784	11.8847
91824	262.795	11.6367
91825	262.806	11.3886
91826	262.816	11.1406
91827	262.826	10.8926
91828	262.836	10.6445
91829	262.846	10.3965
91830	262.856	10.1484
91831	262.866	9.90037
91832	262.875	9.65231
91833	262.885	9.40424
91834	262.894	9.15616
91835	262.903	8.90808
91836	262.912	8.65999
91837	262.921	8.4119
91838	262.929	8.16381
91839	262.938	7.91571
91840	262.946	7.6676
91841	262.954	7.4195
91842	262.962	7.17138
91843	262.97	6.92326
91844	262.978	6.67514
91845	262.986	6.42701
91846	262.993	6.17888
91847	263.001	5.93075
91848	263.008	5.68261
91849	263.015	5.43447
91850	263.022	5.18632
91851	263.029	4.93817
91852	263.036	4.69001
91853	263.042	4.44186
91854	263.049	4.19369
91855	263.055	3.94553
91856	263.061	3.69736
91857	263.067	3.44919
91858	263.073	3.20101
91859	263.079	2.95283
91860	263.085	2.70465
91861	263.09	2.45647
91862	263.096	2.20828
91863	263.101	1.96009
91864	263.106	1.7119
91865	263.111	1.4637
91866	263.116	1.2155
91867	263.12	0.967299
91868	263.125	0.719095
91869	263.13	0.470888
91870	263.134	0.222679
91871	263.138	-0.0255331
91872	263.142	-0.273747
91873	263.146	-0.521963
91874	263.15	-0.770181
91875	263.154	-1.0184
91876	263.157	-1.26662
91877	263.161	-1.51485
91878	263.164	-1.76308
91879	263.167	-2.0113
91880	263.17	-2.25953
91881	263.173	-2.50776
91882	263.176	-2.756
91883	263.179	-3.00423
91884	263.181	-3.25247
91885	263.184	-3.50071
91886	263.186	-3.74895
91887	263.188	-3.99719
91888	263.19	-4.24543
91889	263.192	-4.49367
91890	263.194	-4.74191
91891	263.195	-4.99016
91892	263.197	-5.2384
91893	263.198	-5.48665
91894	263.199	-5.7349
91895	263.201	-5.98315
91896	263.202	-6.2314
91897	263.202	-6.47965
91898	263.203	-6.7279
91899	263.204	-6.97615
91900	263.204	-7.2244
91901	263.205	-7.47265
91902	263.205	-7.7209
91903	263.205	-7.96915
91904	263.205	-8.2174
91905	263.205	-8.46566
91906	263.204	-8.71391
91907	263.204	-8.96216
91908	263.203	-9.21041
91909	263.203	-9.45866
91910	263.202	-9.70691
91911	263.201	-9.95517
91912	263.2	-10.2034
91913	263.199	-10.4517
91914	263.197	-10.6999
91915	263.196	-10.9482
91916	263.194	-11.1964
91917	263.192	-11.4447
91918	263.19	-11.6929
91919	263.188	-11.9412
91920	263.186	-12.1894
91921	263.184	-12.4376
91922	263.181	-12.6859
91923	263.179	-12.9341
91924	263.176	-13.1824
91925	263.173	-13.4306
91926	263.17	-13.6788
91927	263.167	-13.9271
91928	263.164	-14.1753
91929	263.16	-14.4236
91930	263.157	-14.6718
91931	263.153	-14.92
91932	263.149	-15.1682
91933	263.145	-15.4165
91934	263.141	-15.6647
91935	263.137	-15.9129
91936	263.132	-16.1611
91937	263.128	-16.4094
91938	263.123	-16.6576
91939	263.118	-16.9058
91940	263.113	-17.154
91941	263.108	-17.4022
91942	263.103	-17.6504
91943	263.097	-17.8986
91944	263.092	-18.1468
91945	263.086	-18.395
91946	263.08	-18.6432
91947	263.074	-18.8914
91948	263.068	-19.1396
91949	263.061	-19.3878
91950	263.055	-19.636
91951	263.048	-19.8841
91952	263.041	-20.1323
91953	263.034	-20.3805
91954	263.027	-20.6286
91955	263.02	-20.8768
91956	263.012	-21.125
91957	263.005	-21.3731
91958	262.997	-21.6213
91959	262.989	-21.8694
91960	262.981	-22.1176
91961	262.973	-22.3657
91962	262.964	-22.6139
91963	262.955	-22.862
91964	262.947	-23.1101
91965	262.938	-23.3582
91966	262.928	-23.6064
91967	262.919	-23.8545
91968	262.909	-24.1026
91969	262.9	-24.3507
91970	262.89	-24.5988
91971	262.88	-24.8469
91972	262.87	-25.095
91973	262.859	-25.343
91974	262.848	-25.5911
91975	262.838	-25.8392
91976	262.827	-26.0872
91977	262.815	-26.3353
91978	262.804	-26.5834
91979	262.793	-26.8314
91980	262.781	-27.0794
91981	262.769	-27.3275
91982	262.757	-27.5755
91983	262.744	-27.8235
91984	262.732	-28.0715
91985	262.719	-28.3196
91986	262.706	-28.5676
91987	262.693	-28.8155
91988	262.679	-29.0635
91989	262.666	-29.3115
91990	262.652	-29.5595
91991	262.638	-29.8075
91992	262.624	-30.0554
91993	262.609	-30.3034
91994	262.594	-30.5513
91995	262.579	-30.7992
91996	262.564	-31.0472
91997	262.549	-31.2951
91998	262.533	-31.543
91999	262.517	-31.7909
92000	262.501	-32.0388
92001	262.485	-32.2866
92002	262.468	-32.5345
92003	262.452	-32.7824
92004	262.435	-33.0302
92005	262.417	-33.2781
92006	262.4	-33.5259
92007	262.382	-33.7737
92008	262.364	-34.0215
92009	262.345	-34.2693
92010	262.327	-34.5171
92011	262.308	-34.7649
92012	262.289	-35.0127
92013	262.269	-35.2604
92014	262.25	-35.5082
92015	262.23	-35.7559
92016	262.209	-36.0037
92017	262.189	-36.2514
92018	262.168	-36.4991
92019	262.147	-36.7468
92020	262.125	-36.9944
92021	262.104	-37.2421
92022	262.082	-37.4897
92023	262.059	-37.7374
92024	262.037	-37.985
92025	262.014	-38.2326
92026	261.99	-38.4802
92027	261.967	-38.7278
92028	261.943	-38.9754
92029	261.919	-39.2229
92030	261.894	-39.4705
92031	261.869	-39.718
92032	261.844	-39.9655
92033	261.818	-40.213
92034	261.792	-40.4605
92035	261.766	-40.7079
92036	261.739	-40.9554
92037	261.712	-41.2028
92038	261.684	-41.4502
92039	261.656	-41.6976
92040	261.628	-41.945
92041	261.599	-42.1923
92042	261.57	-42.4397
92043	261.541	-42.687
92044	261.511	-42.9343
92045	261.481	-43.1816
92046	261.45	-43.4288
92047	261.419	-43.6761
92048	261.387	-43.9233
92049	261.355	-44.1705
92050	261.323	-44.4177
92051	261.29	-44.6648
92052	261.257	-44.912
92053	261.223	-45.1591
92054	261.188	-45.4062
92055	261.154	-45.6533
92056	261.118	-45.9003
92057	261.082	-46.1473
92058	261.046	-46.3943
92059	261.009	-46.6413
92060	260.972	-46.8883
92061	260.934	-47.1352
92062	260.896	-47.3821
92063	260.857	-47.629
92064	260.817	-47.8758
92065	260.777	-48.1226
92066	260.736	-48.3694
92067	260.695	-48.6162
92068	260.653	-48.8629
92069	260.611	-49.1096
92070	260.568	-49.3563
92071	260.524	-49.603
92072	260.479	-49.8496
92073	260.434	-50.0961
92074	260.389	-50.3427
92075	260.342	-50.5892
92076	260.295	-50.8357
92077	260.247	-51.0821
92078	260.199	-51.3285
92079	260.15	-51.5749
92080	260.1	-51.8213
92081	260.049	-52.0676
92082	259.997	-52.3138
92083	259.945	-52.56
92084	259.892	-52.8062
92085	259.838	-53.0524
92086	259.783	-53.2985
92087	259.728	-53.5445
92088	259.671	-53.7905
92089	259.614	-54.0365
92090	259.556	-54.2824
92091	259.497	-54.5283
92092	259.437	-54.7741
92093	259.376	-55.0199
92094	259.314	-55.2657
92095	259.251	-55.5114
92096	259.187	-55.757
92097	259.122	-56.0026
92098	259.055	-56.2481
92099	258.988	-56.4936
92100	258.92	-56.739
92101	258.85	-56.9843
92102	258.78	-57.2296
92103	258.708	-57.4749
92104	258.635	-57.7201
92105	258.561	-57.9652
92106	258.485	-58.2102
92107	258.409	-58.4552
92108	258.33	-58.7001
92109	258.251	-58.945
92110	258.17	-59.1898
92111	258.088	-59.4345
92112	258.004	-59.6791
92113	257.919	-59.9237
92114	257.832	-60.1681
92115	257.744	-60.4125
92116	257.654	-60.6569
92117	257.563	-60.9011
92118	257.47	-61.1452
92119	257.375	-61.3893
92120	257.278	-61.6333
92121	257.18	-61.8771
92122	257.079	-62.1209
92123	256.977	-62.3646
92124	256.873	-62.6082
92125	256.767	-62.8517
92126	256.659	-63.095
92127	256.549	-63.3383
92128	256.436	-63.5814
92129	256.321	-63.8245
92130	256.204	-64.0674
92131	256.085	-64.3102
92132	255.963	-64.5528
92133	255.839	-64.7954
92134	255.713	-65.0378
92135	255.583	-65.28
92136	255.451	-65.5222
92137	255.316	-65.7641
92138	255.179	-66.006
92139	255.038	-66.2476
92140	254.894	-66.4891
92141	254.748	-66.7305
92142	254.598	-66.9717
92143	254.444	-67.2127
92144	254.287	-67.4535
92145	254.127	-67.6941
92146	253.963	-67.9346
92147	253.795	-68.1748
92148	253.624	-68.4149
92149	253.448	-68.6547
92150	253.269	-68.8943
92151	253.085	-69.1337
92152	252.896	-69.3728
92153	252.703	-69.6117
92154	252.505	-69.8504
92155	252.303	-70.0888
92156	252.095	-70.3269
92157	251.882	-70.5647
92158	251.663	-70.8023
92159	251.439	-71.0395
92160	251.21	-71.2764
298080	322.568	-64.1667
298081	322.984	-64.318
298082	323.405	-64.4679
298083	323.831	-64.6163
298084	324.263	-64.7632
298085	324.7	-64.9085
298086	325.142	-65.0523
298087	325.589	-65.1945
298088	326.041	-65.3351
298089	326.499	-65.474
298090	326.962	-65.6113
298091	327.431	-65.7468
298092	327.905	-65.8806
298093	328.384	-66.0127
298094	328.869	-66.143
298095	329.359	-66.2714
298096	329.855	-66.398
298097	330.356	-66.5227
298098	330.863	-66.6455
298099	331.375	-66.7664
298100	331.892	-66.8853
298101	332.415	-67.0022
298102	332.944	-67.1171
298103	333.478	-67.2299
298104	334.017	-67.3406
298105	334.561	-67.4492
298106	335.111	-67.5556
298107	335.667	-67.6599
298108	336.227	-67.7619
298109	336.793	-67.8617
298110	337.364	-67.9592
298111	337.94	-68.0544
298112	338.521	-68.1472
298113	339.108	-68.2377
298114	339.699	-68.3258
298115	340.295	-68.4114
298116	340.896	-68.4946
298117	341.501	-68.5753
298118	342.112	-68.6535
298119	342.726	-68.7292
298120	343.345	-68.8023
298121	343.969	-68.8728
298122	344.596	-68.9406
298123	345.228	-69.0059
298124	345.863	-69.0684
298125	346.503	-69.1283
298126	347.146	-69.1854
298127	347.793	-69.2398
298128	348.442	-69.2914
298129	349.096	-69.3403
298130	349.752	-69.3863
298131	350.411	-69.4295
298132	351.073	-69.4699
298133	351.738	-69.5074
298134	352.404	-69.542
298135	353.074	-69.5738
298136	353.745	-69.6026
298137	354.418	-69.6286
298138	355.092	-69.6516
298139	355.768	-69.6716
298140	356.446	-69.6888
298141	357.124	-69.703
298142	357.803	-69.7142
298143	358.483	-69.7224
298144	359.164	-69.7277
298145	359.844	-69.73
298146	0.524959	-69.7294
298147	1.20554	-69.7258
298148	1.88577	-69.7192
298149	2.56546	-69.7096
298150	3.24439	-69.6971
298151	3.92236	-69.6817
298152	4.59919	-69.6633
298153	5.27466	-69.6419
298154	5.94859	-69.6176
298155	6.62079	-69.5904
298156	7.29107	-69.5603
298157	7.95924	-69.5273
298158	8.62511	-69.4914
298159	9.28852	-69.4526
298160	9.94928	-69.411
298161	10.6072	-69.3666
298162	11.2622	-69.3193
298163	11.914	-69.2692
298164	12.5626	-69.2164
298165	13.2077	-69.1608
298166	13.8492	-69.1025
298167	14.487	-69.0414
298168	15.1209	-68.9777
298169	15.7508	-68.9113
298170	16.3766	-68.8423
298171	16.9981	-68.7707
298172	17.6153	-68.6965
298173	18.2281	-68.6197
298174	18.8363	-68.5404
298175	19.4398	-68.4586
298176	20.0386	-68.3743
298177	20.6326	-68.2876
298178	21.2217	-68.1985
298179	21.8057	-68.1069
298180	22.3848	-68.0131
298181	22.9588	-67.9169
298182	23.5275	-67.8184
298183	24.0911	-67.7176
298184	24.6494	-67.6146
298185	25.2025	-67.5094
298186	25.7502	-67.402
298187	26.2925	-67.2925
298188	26.8294	-67.1808
298189	27.3609	-67.0671
298190	27.887	-66.9513
298191	28.4077	-66.8336
298192	28.9229	-66.7138
298193	29.4326	-66.5921
298194	29.9369	-66.4684
298195	30.4357	-66.3428
298196	30.929	-66.2154
298197	31.4169	-66.0862
298198	31.8994	-65.9551
298199	32.3764	-65.8222
298200	32.8481	-65.6877
298201	33.3143	-65.5513
298202	33.7752	-65.4133
298203	34.2308	-65.2737
298204	34.6811	-65.1324
298205	35.126	-64.9895
298206	35.5658	-64.845
298207	36.0003	-64.6989
298208	36.4296	-64.5514
298209	36.8538	-64.4023
298210	37.2729	-64.2518
298211	37.6869	-64.0998
298212	38.0959	-63.9464
298213	38.4999	-63.7916
298214	38.899	-63.6354
298215	39.2932	-63.4779
298216	39.6826	-63.3191
298217	40.0671	-63.1589
298218	40.4469	-62.9975
298219	40.822	-62.8348
298220	41.1924	-62.6709
298221	41.5583	-62.5058
298222	41.9195	-62.3395
298223	42.2763	-62.172
298224	42.6286	-62.0034
298225	42.9765	-61.8337
298226	43.32	-61.6628
298227	43.6592	-61.4909
298228	43.9942	-61.3179
298229	44.3249	-61.1439
298230	44.6515	-60.9688
298231	44.974	-60.7927
298232	45.2924	-60.6157
298233	45.6068	-60.4376
298234	45.9173	-60.2586
298235	46.2239	-60.0787
298236	46.5266	-59.8979
298237	46.8255	-59.7161
298238	47.1206	-59.5335
298239	47.4121	-59.35
298240	47.6998	-59.1656
298241	47.984	-58.9804
298242	48.2646	-58.7944
298243	48.5417	-58.6075
298244	48.8153	-58.4199
298245	49.0855	-58.2315
298246	49.3523	-58.0423
298247	49.6158	-57.8524
298248	49.876	-57.6617
298249	50.133	-57.4703
298250	50.3867	-57.2782
298251	50.6373	-57.0853
298252	50.8849	-56.8918
298253	51.1293	-56.6976
298254	51.3707	-56.5028
298255	51.6092	-56.3072
298256	51.8446	-56.1111
298257	52.0772	-55.9143
298258	52.307	-55.7169
298259	52.5339	-55.5189
298260	52.758	-55.3203
298261	52.9794	-55.1211
298262	53.1981	-54.9213
298263	53.4142	-54.7209
298264	53.6276	-54.52
298265	53.8384	-54.3186
298266	54.0466	-54.1166
298267	54.2524	-53.914
298268	54.4556	-53.711
298269	54.6564	-53.5074
298270	54.8548	-53.3033
298271	55.0508	-53.0988
298272	55.2445	-52.8937
298273	55.4358	-52.6882
298274	55.6249	-52.4822
298275	55.8117	-52.2757
298276	55.9963	-52.0688
298277	56.1787	-51.8614
298278	56.3589	-51.6536
298279	56.5371	-51.4453
298280	56.7131	-51.2367
298281	56.887	-51.0276
298282	57.0589	-50.8181
298283	57.2288	-50.6082
298284	57.3967	-50.3979
298285	57.5626	-50.1871
298286	57.7266	-49.9761
298287	57.8887	-49.7646
298288	58.0489	-49.5527
298289	58.2073	-49.3405
298290	58.3638	-49.128
298291	58.5185	-48.915
298292	58.6715	-48.7017
298293	58.8227	-48.4881
298294	58.9721	-48.2741
298295	59.1199	-48.0598
298296	59.2659	-47.8452
298297	59.4103	-47.6302
298298	59.553	-47.415
298299	59.6942	-47.1994
298300	59.8337	-46.9835
298301	59.9716	-46.7673
298302	60.108	-46.5508
298303	60.2429	-46.334
298304	60.3762	-46.1169
298305	60.508	-45.8995
298306	60.6384	-45.6818
298307	60.7673	-45.4639
298308	60.8947	-45.2457
298309	61.0207	-45.0272
298310	61.1454	-44.8085
298311	61.2686	-44.5895
298312	61.3905	-44.3702
298313	61.511	-44.1507
298314	61.6302	-43.9309
298315	61.748	-43.7109
298316	61.8646	-43.4907
298317	61.9799	-43.2702
298318	62.0939	-43.0494
298319	62.2066	-42.8285
298320	62.3182	-42.6073
298321	62.4285	-42.3859
298322	62.5375	-42.1642
298323	62.6454	-41.9424
298324	62.7522	-41.7203
298325	62.8577	-41.498
298326	62.9621	-41.2755
298327	63.0654	-41.0528
298328	63.1675	-40.8299
298329	63.2685	-40.6068
298330	63.3685	-40.3835
298331	63.4673	-40.16
298332	63.5651	-39.9363
298333	63.6619	-39.7125
298334	63.7575	-39.4884
298335	63.8522	-39.2641
298336	63.9458	-39.0397
298337	64.0384	-38.8151
298338	64.13	-38.5903
298339	64.2207	-38.3654
298340	64.3103	-38.1402
298341	64.399	-37.9149
298342	64.4868	-37.6895
298343	64.5736	-37.4638
298344	64.6594	-37.238
298345	64.7444	-37.0121
298346	64.8284	-36.786
298347	64.9115	-36.5597
298348	64.9938	-36.3333
298349	65.0751	-36.1067
298350	65.1556	-35.88
298351	65.2352	-35.6532
298352	65.314	-35.4261
298353	65.3919	-35.199
298354	65.469	-34.9717
298355	65.5453	-34.7443
298356	65.6207	-34.5167
298357	65.6953	-34.289
298358	65.7692	-34.0611
298359	65.8422	-33.8332
298360	65.9145	-33.6051
298361	65.9859	-33.3768
298362	66.0566	-33.1485
298363	66.1266	-32.92
298364	66.1958	-32.6914
298365	66.2642	-32.4627
298366	66.332	-32.2338
298367	66.3989	-32.0049
298368	66.4652	-31.7758
298369	66.5307	-31.5466
298370	66.5956	-31.3173
298371	66.6597	-31.0878
298372	66.7232	-30.8583
298373	66.7859	-30.6287
298374	66.848	-30.3989
298375	66.9094	-30.1691
298376	66.9701	-29.9391
298377	67.0301	-29.709
298378	67.0895	-29.4789
298379	67.1483	-29.2486
298380	67.2064	-29.0182
298381	67.2639	-28.7878
298382	67.3207	-28.5572
298383	67.3769	-28.3266
298384	67.4325	-28.0958
298385	67.4875	-27.865
298386	67.5419	-27.634
298387	67.5956	-27.403
298388	67.6488	-27.1719
298389	67.7013	-26.9407
298390	67.7533	-26.7094
298391	67.8047	-26.478
298392	67.8555	-26.2466
298393	67.9058	-26.015
298394	67.9554	-25.7834
298395	68.0045	-25.5517
298396	68.0531	-25.3199
298397	68.1011	-25.0881
298398	68.1485	-24.8561
298399	68.1954	-24.6241
298400	68.2417	-24.392
298401	68.2876	-24.1598
298402	68.3328	-23.9276
298403	68.3776	-23.6953
298404	68.4218	-23.4629
298405	68.4655	-23.2304
298406	68.5087	-22.9979
298407	68.5514	-22.7653
298408	68.5935	-22.5326
298409	68.6352	-22.2999
298410	68.6764	-22.0671
298411	68.717	-21.8342
298412	68.7572	-21.6013
298413	68.7969	-21.3683
298414	68.8361	-21.1353
298415	68.8748	-20.9021
298416	68.913	-20.669
298417	68.9507	-20.4357
298418	68.988	-20.2024
298419	69.0248	-19.9691
298420	69.0612	-19.7357
298421	69.097	-19.5022
298422	69.1324	-19.2687
298423	69.1674	-19.0351
298424	69.2019	-18.8015
298425	69.236	-18.5678
298426	69.2696	-18.334
298427	69.3027	-18.1003
298428	69.3354	-17.8664
298429	69.3677	-17.6325
298430	69.3995	-17.3986
298431	69.4309	-17.1646
298432	69.4619	-16.9306
298433	69.4924	-16.6965
298434	69.5225	-16.4623
298435	69.5522	-16.2282
298436	69.5815	-15.9939
298437	69.6103	-15.7597
298438	69.6388	-15.5254
298439	69.6668	-15.291
298440	69.6944	-15.0566
298441	69.7215	-14.8222
298442	69.7483	-14.5877
298443	69.7747	-14.3532
298444	69.8007	-14.1186
298445	69.8262	-13.884
298446	69.8514	-13.6494
298447	69.8761	-13.4147
298448	69.9005	-13.18
298449	69.9245	-12.9452
298450	69.9481	-12.7105
298451	69.9713	-12.4756
298452	69.9941	-12.2408
298453	70.0165	-12.0059
298454	70.0385	-11.771
298455	70.0601	-11.536
298456	70.0814	-11.301
298457	70.1023	-11.066
298458	70.1228	-10.831
298459	70.1429	-10.5959
298460	70.1627	-10.3608
298461	70.182	-10.1256
298462	70.201	-9.89048
298463	70.2197	-9.65528
298464	70.2379	-9.42006
298465	70.2558	-9.18481
298466	70.2733	-8.94953
298467	70.2905	-8.71423
298468	70.3073	-8.47891
298469	70.3237	-8.24355
298470	70.3398	-8.00818
298471	70.3555	-7.77278
298472	70.3708	-7.53736
298473	70.3858	-7.30191
298474	70.4004	-7.06645
298475	70.4147	-6.83096
298476	70.4286	-6.59545
298477	70.4422	-6.35992
298478	70.4554	-6.12438
298479	70.4682	-5.88881
298480	70.4807	-5.65322
298481	70.4928	-5.41762
298482	70.5046	-5.18199
298483	70.5161	-4.94636
298484	70.5272	-4.7107
298485	70.5379	-4.47503
298486	70.5483	-4.23934
298487	70.5583	-4.00364
298488	70.568	-3.76792
298489	70.5774	-3.53219
298490	70.5864	-3.29644
298491	70.5951	-3.06069
298492	70.6034	-2.82491
298493	70.6114	-2.58913
298494	70.619	-2.35334
298495	70.6263	-2.11753
298496	70.6332	-1.88172
298497	70.6398	-1.64589
298498	70.6461	-1.41006
298499	70.652	-1.17421
298500	70.6576	-0.938359
298501	70.6628	-0.702498
298502	70.6677	-0.466629
298503	70.6723	-0.230754
298504	70.6765	0.00512801
298505	70.6804	0.241016
298506	70.6839	0.47691
298507	70.6871	0.712809
298508	70.6899	0.948712
298509	70.6924	1.18462
298510	70.6946	1.42053
298511	70.6964	1.65644
298512	70.6979	1.89236
298513	70.6991	2.12828
298514	70.6999	2.3642
298515	70.7004	2.60012
298516	70.7005	2.83604
298517	70.7003	3.07197
298518	70.6997	3.30789
298519	70.6988	3.54381
298520	70.6976	3.77973
298521	70.696	4.01565
298522	70.6941	4.25157
298523	70.6918	4.48748
298524	70.6892	4.72339
298525	70.6863	4.95929
298526	70.683	5.1952
298527	70.6793	5.43109
298528	70.6754	5.66699
298529	70.671	5.90287
298530	70.6663	6.13875
298531	70.6613	6.37462
298532	70.656	6.61049
298533	70.6502	6.84635
298534	70.6442	7.0822
298535	70.6377	7.31804
298536	70.631	7.55387
298537	70.6239	7.78969
298538	70.6164	8.0255
298539	70.6086	8.2613
298540	70.6004	8.49709
298541	70.5919	8.73287
298542	70.583	8.96864
298543	70.5737	9.20439
298544	70.5641	9.44013
298545	70.5542	9.67585
298546	70.5439	9.91156
298547	70.5332	10.1473
298548	70.5222	10.3829
298549	70.5108	10.6186
298550	70.499	10.8542
298551	70.4869	11.0899
298552	70.4744	11.3255
298553	70.4615	11.5611
298554	70.4483	11.7967
298555	70.4347	12.0322
298556	70.4207	12.2677
298557	70.4063	12.5033
298558	70.3916	12.7388
298559	70.3765	12.9742
298560	70.361	13.2097
298561	70.3452	13.4451
298562	70.329	13.6805
298563	70.3123	13.9159
298564	70.2953	14.1513
298565	70.2779	14.3866
298566	70.2602	14.6219
298567	70.242	14.8572
298568	70.2234	15.0924
298569	70.2045	15.3276
298570	70.1851	15.5628
298571	70.1654	15.798
298572	70.1453	16.0331
298573	70.1247	16.2683
298574	70.1038	16.5033
298575	70.0824	16.7384
298576	70.0607	16.9734
298577	70.0385	17.2084
298578	70.0159	17.4433
298579	69.9929	17.6782
298580	69.9695	17.9131
298581	69.9457	18.148
298582	69.9214	18.3828
298583	69.8968	18.6176
298584	69.8717	18.8523
298585	69.8461	19.087
298586	69.8202	19.3217
298587	69.7938	19.5563
298588	69.767	19.7909
298589	69.7397	20.0254
298590	69.712	20.2599
298591	69.6838	20.4944
298592	69.6552	20.7288
298593	69.6262	20.9632
298594	69.5967	21.1975
298595	69.5667	21.4318
298596	69.5363	21.666
298597	69.5054	21.9002
298598	69.474	22.1343
298599	69.4422	22.3684
298600	69.4099	22.6025
298601	69.3771	22.8365
298602	69.3439	23.0704
298603	69.3101	23.3043
298604	69.2759	23.5382
298605	69.2412	23.772
298606	69.206	24.0057
298607	69.1703	24.2394
298608	69.1341	24.473
298609	69.0974	24.7066
298610	69.0601	24.9401
298611	69.0224	25.1735
298612	68.9841	25.4069
298613	68.9454	25.6403
298614	68.9061	25.8735
298615	68.8662	26.1068
298616	68.8259	26.3399
298617	68.785	26.573
298618	68.7435	26.806
298619	68.7015	27.039
298620	68.659	27.2719
298621	68.6159	27.5047
298622	68.5722	27.7374
298623	68.5279	27.9701
298624	68.4831	28.2027
298625	68.4378	28.4353
298626	68.3918	28.6677
298627	68.3452	28.9001
298628	68.2981	29.1324
298629	68.2503	29.3647
298630	68.202	29.5969
298631	68.153	29.8289
298632	68.1035	30.0609
298633	68.0533	30.2929
298634	68.0024	30.5247
298635	67.951	30.7565
298636	67.8989	30.9882
298637	67.8462	31.2197
298638	67.7928	31.4512
298639	67.7387	31.6827
298640	67.684	31.914
298641	67.6287	32.1452
298642	67.5726	32.3764
298643	67.5159	32.6074
298644	67.4585	32.8384
298645	67.4003	33.0692
298646	67.3415	33.3
298647	67.282	33.5306
298648	67.2217	33.7612
298649	67.1608	33.9917
298650	67.099	34.222
298651	67.0366	34.4523
298652	66.9734	34.6824
298653	66.9094	34.9124
298654	66.8447	35.1424
298655	66.7792	35.3722
298656	66.7129	35.6019
298657	66.6459	35.8315
298658	66.578	36.0609
298659	66.5093	36.2903
298660	66.4398	36.5195
298661	66.3695	36.7486
298662	66.2983	36.9776
298663	66.2264	37.2065
298664	66.1535	37.4352
298665	66.0798	37.6638
298666	66.0052	37.8923
298667	65.9297	38.1206
298668	65.8534	38.3488
298669	65.7761	38.5769
298670	65.6979	38.8048
298671	65.6188	39.0326
298672	65.5388	39.2603
298673	65.4578	39.4878
298674	65.3759	39.7151
298675	65.293	39.9423
298676	65.2091	40.1694
298677	65.1242	40.3963
298678	65.0383	40.623
298679	64.9514	40.8496
298680	64.8634	41.076
298681	64.7745	41.3023
298682	64.6844	41.5284
298683	64.5933	41.7543
298684	64.5011	41.9801
298685	64.4079	42.2057
298686	64.3135	42.4311
298687	64.218	42.6563
298688	64.1213	42.8813
298689	64.0235	43.1062
298690	63.9246	43.3309
298691	63.8244	43.5553
298692	63.7231	43.7796
298693	63.6205	44.0037
298694	63.5167	44.2276
298695	63.4117	44.4513
298696	63.3054	44.6748
298697	63.1978	44.898
298698	63.089	45.1211
298699	62.9788	45.344
298700	62.8673	45.5666
298701	62.7545	45.789
298702	62.6403	46.0112
298703	62.5247	46.2331
298704	62.4077	46.4548
298705	62.2892	46.6763
298706	62.1694	46.8975
298707	62.0481	47.1185
298708	61.9253	47.3393
298709	61.8009	47.5597
298710	61.6751	47.78
298711	61.5477	47.9999
298712	61.4188	48.2196
298713	61.2883	48.4391
298714	61.1561	48.6582
298715	61.0224	48.8771
298716	60.8869	49.0957
298717	60.7498	49.314
298718	60.611	49.532
298719	60.4705	49.7497
298720	60.3282	49.9671
298721	60.1841	50.1842
298722	60.0382	50.401
298723	59.8905	50.6175
298724	59.741	50.8336
298725	59.5895	51.0494
298726	59.4361	51.2649
298727	59.2808	51.48
298728	59.1235	51.6948
298729	58.9643	51.9093
298730	58.8029	52.1233
298731	58.6396	52.337
298732	58.4741	52.5504
298733	58.3065	52.7633
298734	58.1368	52.9759
298735	57.9648	53.1881
298736	57.7907	53.3998
298737	57.6143	53.6112
298738	57.4356	53.8222
298739	57.2546	54.0327
298740	57.0712	54.2428
298741	56.8854	54.4525
298742	56.6972	54.6617
298743	56.5065	54.8704
298744	56.3134	55.0787
298745	56.1176	55.2866
298746	55.9193	55.4939
298747	55.7184	55.7008
298748	55.5148	55.9072
298749	55.3084	56.113
298750	55.0994	56.3184
298751	54.8875	56.5232
298752	54.6728	56.7275
298753	54.4552	56.9313
298754	54.2347	57.1345
298755	54.0112	57.3371
298756	53.7847	57.5391
298757	53.5552	57.7406
298758	53.3225	57.9415
298759	53.0866	58.1417
298760	52.8476	58.3414
298761	52.6053	58.5404
298762	52.3596	58.7387
298763	52.1106	58.9364
298764	51.8582	59.1334
298765	51.6023	59.3298
298766	51.3429	59.5254
298767	51.0799	59.7204
298768	50.8132	59.9146
298769	50.5429	60.108
298770	50.2688	60.3007
298771	49.9909	60.4927
298772	49.7092	60.6839
298773	49.4235	60.8742
298774	49.1338	61.0638
298775	48.8401	61.2525
298776	48.5423	61.4403
298777	48.2403	61.6273
298778	47.9341	61.8135
298779	47.6236	61.9987
298780	47.3087	62.183
298781	46.9894	62.3663
298782	46.6656	62.5487
298783	46.3373	62.7302
298784	46.0043	62.9106
298785	45.6666	63.09
298786	45.3242	63.2684
298787	44.977	63.4457
298788	44.6249	63.622
298789	44.2678	63.7971
298790	43.9057	63.9711
298791	43.5385	64.144
298792	43.1662	64.3157
298793	42.7886	64.4863
298794	42.4058	64.6556
298795	42.0175	64.8236
298796	41.6239	64.9904
298797	41.2247	65.1559
298798	40.82	65.3201
298799	40.4097	65.4829
298800	39.9937	65.6444
298801	39.5719	65.8045
298802	39.1443	65.9631
298803	38.7108	66.1203
298804	38.2714	66.276
298805	37.826	66.4302
298806	37.3745	66.5828
298807	36.917	66.7339
298808	36.4532	66.8834
298809	35.9832	67.0312
298810	35.507	67.1773
298811	35.0244	67.3218
298812	34.5355	67.4645
298813	34.0402	67.6055
298814	33.5384	67.7446
298815	33.0301	67.8819
298816	32.5154	68.0174
298817	31.9941	68.1509
298818	31.4662	68.2825
298819	30.9317	68.4121
298820	30.3906	68.5397
298821	29.8429	68.6653
298822	29.2886	68.7888
298823	28.7277	68.9101
298824	28.1601	69.0293
298825	27.5859	69.1463
298826	27.0051	69.2611
298827	26.4178	69.3736
298828	25.8238	69.4838
298829	25.2234	69.5917
298830	24.6165	69.6971
298831	24.0031	69.8002
298832	23.3834	69.9008
298833	22.7573	69.9989
298834	22.125	70.0945
298835	21.4865	70.1875
298836	20.8419	70.2779
298837	20.1914	70.3656
298838	19.5349	70.4507
298839	18.8726	70.5331
298840	18.2047	70.6127
298841	17.5312	70.6896
298842	16.8523	70.7636
298843	16.1682	70.8348
298844	15.4789	70.9031
298845	14.7847	70.9685
298846	14.0856	71.031
298847	13.382	71.0905
298848	12.6739	71.147
298849	11.9616	71.2005
298850	11.2453	71.2509
298851	10.5251	71.2983
298852	9.80134	71.3425
298853	9.07415	71.3837
298854	8.3438	71.4217
298855	7.61051	71.4565
298856	6.87453	71.4882
298857	6.1361	71.5167
298858	5.39547	71.542
298859	4.65289	71.564
298860	3.90864	71.5828
298861	3.16296	71.5984
298862	2.41612	71.6107
298863	1.6684	71.6198
298864	0.920056	71.6256
298865	0.171365	71.6281
298866	359.423	71.6274
298867	358.674	71.6234
298868	357.926	71.6162
298869	357.179	71.6057
298870	356.432	71.5919
298871	355.687	71.5749
298872	354.944	71.5546
298873	354.202	71.5311
298874	353.462	71.5044
298875	352.725	71.4745
298876	351.99	71.4414
298877	351.258	71.4052
298878	350.529	71.3658
298879	349.803	71.3232
298880	349.081	71.2776
298881	348.363	71.2289
298882	347.648	71.1771
298883	346.937	71.1222
298884	346.231	71.0644
298885	345.53	71.0036
298886	344.833	70.9398
298887	344.141	70.8731
298888	343.454	70.8035
298889	342.772	70.731
298890	342.095	70.6557
298891	341.424	70.5776
298892	340.759	70.4968
298893	340.099	70.4132
298894	339.445	70.3269
298895	338.797	70.238
298896	338.155	70.1464
298897	337.519	70.0522
298898	336.89	69.9555
298899	336.267	69.8563
298900	335.65	69.7546
298901	335.039	69.6505
298902	334.435	69.5439
298903	333.837	69.435
298904	333.246	69.3238
298905	332.662	69.2103
298906	332.084	69.0945
298907	331.513	68.9765
298908	330.948	68.8563
298909	330.39	68.734
298910	329.838	68.6096
298911	329.294	68.4831
298912	328.756	68.3546
298913	328.224	68.2241
298914	327.699	68.0916
298915	327.18	67.9572
298916	326.669	67.8209
298917	326.163	67.6827
298918	325.664	67.5428
298919	325.172	67.401
298920	324.686	67.2575
298921	324.206	67.1123
298922	323.732	66.9654
298923	323.265	66.8168
298924	322.804	66.6666
298925	322.349	66.5148
298926	321.9	66.3615
298927	321.457	66.2066
298928	321.021	66.0502
298929	320.59	65.8924
298930	320.165	65.7331
298931	319.745	65.5724
298932	319.332	65.4103
298933	318.924	65.2468
298934	318.522	65.082
298935	318.125	64.9159
298936	317.734	64.7485
298937	317.348	64.5799
298938	316.967	64.41
298939	316.592	64.2389
298940	316.222	64.0667
298941	315.857	63.8933
298942	315.497	63.7187
298943	315.142	63.5431
298944	314.792	63.3663
298945	314.447	63.1885
298946	314.107	63.0096
298947	313.771	62.8297
298948	313.44	62.6488
298949	313.114	62.4669
298950	312.792	62.2841
298951	312.474	62.1003
298952	312.161	61.9155
298953	311.853	61.7299
298954	311.548	61.5433
298955	311.248	61.3559
298956	310.952	61.1677
298957	310.66	60.9785
298958	310.372	60.7886
298959	310.088	60.5979
298960	309.808	60.4063
298961	309.532	60.214
298962	309.259	60.0209
298963	308.991	59.8271
298964	308.726	59.6325
298965	308.464	59.4372
298966	308.206	59.2413
298967	307.952	59.0446
298968	307.701	58.8472
298969	307.453	58.6492
298970	307.209	58.4505
298971	306.968	58.2512
298972	306.73	58.0513
298973	306.496	57.8507
298974	306.265	57.6495
298975	306.036	57.4478
298976	305.811	57.2454
298977	305.589	57.0425
298978	305.37	56.839
298979	305.153	56.635
298980	304.94	56.4304
298981	304.729	56.2253
298982	304.521	56.0197
298983	304.316	55.8136
298984	304.114	55.6069
298985	303.914	55.3998
298986	303.716	55.1922
298987	303.522	54.9841
298988	303.33	54.7756
298989	303.14	54.5666
298990	302.953	54.3571
298991	302.768	54.1472
298992	302.586	53.9369
298993	302.406	53.7261
298994	302.228	53.5149
298995	302.052	53.3033
298996	301.879	53.0913
298997	301.708	52.8789
298998	301.539	52.6662
298999	301.373	52.453
299000	301.208	52.2395
299001	301.045	52.0255
299002	300.885	51.8113
299003	300.727	51.5966
299004	300.57	51.3816
299005	300.416	51.1663
299006	300.263	50.9506
299007	300.112	50.7346
299008	299.963	50.5183
299009	299.816	50.3016
299010	299.671	50.0847
299011	299.528	49.8674
299012	299.386	49.6498
299013	299.246	49.4319
299014	299.108	49.2137
299015	298.972	48.9952
299016	298.837	48.7764
299017	298.704	48.5574
299018	298.573	48.3381
299019	298.443	48.1184
299020	298.314	47.8986
299021	298.188	47.6784
299022	298.062	47.458
299023	297.939	47.2374
299024	297.816	47.0165
299025	297.696	46.7953
299026	297.576	46.5739
299027	297.458	46.3523
299028	297.342	46.1304
299029	297.227	45.9083
299030	297.113	45.686
299031	297.001	45.4634
299032	296.89	45.2406
299033	296.78	45.0176
299034	296.672	44.7944
299035	296.565	44.571
299036	296.459	44.3474
299037	296.354	44.1235
299038	296.251	43.8995
299039	296.149	43.6753
299040	296.048	43.4508
299041	295.948	43.2262
299042	295.85	43.0014
299043	295.752	42.7764
299044	295.656	42.5512
299045	295.561	42.3258
299046	295.467	42.1003
299047	295.374	41.8745
299048	295.282	41.6487
299049	295.192	41.4226
299050	295.102	41.1964
299051	295.013	40.97
299052	294.926	40.7434
299053	294.839	40.5167
299054	294.754	40.2898
299055	294.669	40.0628
299056	294.586	39.8356
299057	294.503	39.6082
299058	294.421	39.3807
299059	294.341	39.1531
299060	294.261	38.9253
299061	294.182	38.6974
299062	294.104	38.4693
299063	294.027	38.2411
299064	293.951	38.0128
299065	293.876	37.7843
299066	293.802	37.5557
299067	293.728	37.327
299068	293.656	37.0981
299069	293.584	36.8691
299070	293.513	36.64
299071	293.443	36.4108
299072	293.374	36.1814
299073	293.305	35.9519
299074	293.238	35.7223
299075	293.171	35.4926
299076	293.105	35.2628
299077	293.04	35.0329
299078	292.975	34.8028
299079	292.911	34.5726
299080	292.848	34.3424
299081	292.786	34.112
299082	292.725	33.8815
299083	292.664	33.6509
299084	292.604	33.4203
299085	292.545	33.1895
299086	292.486	32.9586
299087	292.428	32.7276
299088	292.371	32.4965
299089	292.314	32.2654
299090	292.258	32.0341
299091	292.203	31.8027
299092	292.149	31.5713
299093	292.095	31.3397
299094	292.041	31.1081
299095	291.989	30.8764
299096	291.937	30.6446
299097	291.886	30.4127
299098	291.835	30.1808
299099	291.785	29.9487
299100	291.735	29.7166
299101	291.687	29.4844
299102	291.638	29.2521
299103	291.591	29.0197
299104	291.544	28.7873
299105	291.497	28.5548
299106	291.452	28.3222
299107	291.406	28.0895
299108	291.362	27.8568
299109	291.317	27.624
299110	291.274	27.3911
299111	291.231	27.1581
299112	291.188	26.9251
299113	291.147	26.692
299114	291.105	26.4589
299115	291.064	26.2257
299116	291.024	25.9924
299117	290.984	25.7591
299118	290.945	25.5257
299119	290.906	25.2922
299120	290.868	25.0587
299121	290.831	24.8251
299122	290.793	24.5915
299123	290.757	24.3578
299124	290.721	24.124
299125	290.685	23.8902
299126	290.65	23.6564
299127	290.615	23.4225
299128	290.581	23.1885
299129	290.547	22.9545
299130	290.514	22.7204
299131	290.481	22.4863
299132	290.449	22.2521
299133	290.417	22.0179
299134	290.386	21.7836
299135	290.355	21.5493
299136	290.325	21.3149
299137	290.295	21.0805
299138	290.265	20.846
299139	290.236	20.6115
299140	290.208	20.377
299141	290.18	20.1424
299142	290.152	19.9078
299143	290.125	19.6731
299144	290.098	19.4384
299145	290.072	19.2036
299146	290.046	18.9689
299147	290.02	18.734
299148	289.995	18.4992
299149	289.97	18.2643
299150	289.946	18.0293
299151	289.922	17.7943
299152	289.899	17.5593
299153	289.876	17.3243
299154	289.853	17.0892
299155	289.831	16.8541
299156	289.809	16.6189
299157	289.788	16.3837
299158	289.767	16.1485
299159	289.747	15.9133
299160	289.726	15.678
299161	289.707	15.4427
299162	289.687	15.2074
299163	289.668	14.972
299164	289.65	14.7366
299165	289.632	14.5012
299166	289.614	14.2658
299167	289.596	14.0303
299168	289.579	13.7948
299169	289.563	13.5593
299170	289.546	13.3237
299171	289.53	13.0882
299172	289.515	12.8526
299173	289.5	12.617
299174	289.485	12.3813
299175	289.471	12.1457
299176	289.457	11.91
299177	289.443	11.6743
299178	289.43	11.4386
299179	289.417	11.2029
299180	289.404	10.9671
299181	289.392	10.7313
299182	289.38	10.4955
299183	289.369	10.2597
299184	289.358	10.0239
299185	289.347	9.78808
299186	289.337	9.55222
299187	289.327	9.31635
299188	289.317	9.08047
299189	289.308	8.84457
299190	289.299	8.60865
299191	289.29	8.37273
299192	289.282	8.13679
299193	289.274	7.90084
299194	289.266	7.66488
299195	289.259	7.42891
299196	289.252	7.19293
299197	289.246	6.95694
299198	289.24	6.72094
299199	289.234	6.48493
299200	289.228	6.24891
299201	289.223	6.01288
299202	289.219	5.77685
299203	289.214	5.54081
299204	289.21	5.30476
299205	289.206	5.06871
299206	289.203	4.83265
299207	289.2	4.59659
299208	289.197	4.36052
299209	289.195	4.12445
299210	289.193	3.88838
299211	289.191	3.6523
299212	289.19	3.41622
299213	289.189	3.18014
299214	289.188	2.94405
299215	289.188	2.70797
299216	289.188	2.47189
299217	289.188	2.2358
299218	289.189	1.99972
299219	289.19	1.76364
299220	289.191	1.52755
299221	289.193	1.29148
299222	289.195	1.0554
299223	289.197	0.819324
299224	289.2	0.583254
299225	289.203	0.347188
299226	289.207	0.111125
299227	289.21	-0.124932
299228	289.214	-0.360984
299229	289.219	-0.59703
299230	289.223	-0.833069
299231	289.229	-1.0691
299232	289.234	-1.30513
299233	289.24	-1.54115
299234	289.246	-1.77715
299235	289.252	-2.01315
299236	289.259	-2.24915
299237	289.266	-2.48513
299238	289.274	-2.7211
299239	289.282	-2.95706
299240	289.29	-3.19301
299241	289.298	-3.42895
299242	289.307	-3.66487
299243	289.316	-3.90078
299244	289.326	-4.13668
299245	289.336	-4.37257
299246	289.346	-4.60844
299247	289.357	-4.84429
299248	289.368	-5.08013
299249	289.379	-5.31596
299250	289.39	-5.55177
299251	289.402	-5.78756
299252	289.415	-6.02333
299253	289.427	-6.25909
299254	289.44	-6.49483
299255	289.454	-6.73055
299256	289.468	-6.96625
299257	289.482	-7.20193
299258	289.496	-7.43758
299259	289.511	-7.67322
299260	289.526	-7.90884
299261	289.542	-8.14443
299262	289.557	-8.38001
299263	289.574	-8.61555
299264	289.59	-8.85108
299265	289.607	-9.08658
299266	289.625	-9.32205
299267	289.642	-9.5575
299268	289.66	-9.79293
299269	289.679	-10.0283
299270	289.697	-10.2637
299271	289.717	-10.499
299272	289.736	-10.7344
299273	289.756	-10.9696
299274	289.776	-11.2049
299275	289.797	-11.4401
299276	289.818	-11.6753
299277	289.84	-11.9105
299278	289.861	-12.1456
299279	289.884	-12.3807
299280	289.906	-12.6158
299281	289.929	-12.8508
299282	289.952	-13.0858
299283	289.976	-13.3208
299284	290	-13.5557
299285	290.025	-13.7906
299286	290.05	-14.0255
299287	290.075	-14.2603
299288	290.101	-14.4951
299289	290.127	-14.7298
299290	290.154	-14.9645
299291	290.181	-15.1992
299292	290.208	-15.4338
299293	290.236	-15.6684
299294	290.264	-15.9029
299295	290.292	-16.1374
299296	290.321	-16.3719
299297	290.351	-16.6063
299298	290.381	-16.8406
299299	290.411	-17.075
299300	290.442	-17.3092
299301	290.473	-17.5435
299302	290.505	-17.7776
299303	290.537	-18.0118
299304	290.569	-18.2459
299305	290.602	-18.4799
299306	290.635	-18.7139
299307	290.669	-18.9478
299308	290.703	-19.1817
299309	290.738	-19.4155
299310	290.773	-19.6493
299311	290.809	-19.883
299312	290.845	-20.1166
299313	290.881	-20.3502
299314	290.918	-20.5838
299315	290.956	-20.8173
299316	290.994	-21.0507
299317	291.032	-21.2841
299318	291.071	-21.5174
299319	291.11	-21.7507
299320	291.15	-21.9838
299321	291.191	-22.217
299322	291.232	-22.45
299323	291.273	-22.683
299324	291.315	-22.916
299325	291.357	-23.1488
299326	291.4	-23.3816
299327	291.444	-23.6144
299328	291.487	-23.847
299329	291.532	-24.0796
299330	291.577	-24.3121
299331	291.622	-24.5446
299332	291.668	-24.7769
299333	291.715	-25.0092
299334	291.762	-25.2415
299335	291.81	-25.4736
299336	291.858	-25.7057
299337	291.907	-25.9377
299338	291.956	-26.1696
299339	292.006	-26.4014
299340	292.057	-26.6332
299341	292.108	-26.8648
299342	292.159	-27.0964
299343	292.212	-27.3279
299344	292.265	-27.5593
299345	292.318	-27.7906
299346	292.372	-28.0219
299347	292.427	-28.253
299348	292.482	-28.4841
299349	292.538	-28.715
299350	292.594	-28.9459
299351	292.651	-29.1767
299352	292.709	-29.4073
299353	292.768	-29.6379
299354	292.827	-29.8684
299355	292.886	-30.0988
299356	292.947	-30.3291
299357	293.008	-30.5592
299358	293.07	-30.7893
299359	293.132	-31.0193
299360	293.195	-31.2491
299361	293.259	-31.4789
299362	293.324	-31.7085
299363	293.389	-31.938
299364	293.455	-32.1674
299365	293.521	-32.3967
299366	293.589	-32.6259
299367	293.657	-32.855
299368	293.726	-33.0839
299369	293.795	-33.3128
299370	293.866	-33.5415
299371	293.937	-33.77
299372	294.009	-33.9985
299373	294.081	-34.2268
299374	294.155	-34.455
299375	294.229	-34.683
299376	294.304	-34.911
299377	294.38	-35.1388
299378	294.457	-35.3664
299379	294.534	-35.5939
299380	294.613	-35.8213
299381	294.692	-36.0485
299382	294.772	-36.2756
299383	294.853	-36.5026
299384	294.935	-36.7294
299385	295.018	-36.956
299386	295.102	-37.1825
299387	295.186	-37.4088
299388	295.272	-37.635
299389	295.358	-37.861
299390	295.446	-38.0869
299391	295.534	-38.3125
299392	295.623	-38.5381
299393	295.714	-38.7634
299394	295.805	-38.9886
299395	295.897	-39.2136
299396	295.99	-39.4384
299397	296.085	-39.6631
299398	296.18	-39.8875
299399	296.276	-40.1118
299400	296.374	-40.3359
299401	296.472	-40.5598
299402	296.572	-40.7836
299403	296.673	-41.0071
299404	296.774	-41.2304
299405	296.877	-41.4535
299406	296.981	-41.6764
299407	297.087	-41.8992
299408	297.193	-42.1217
299409	297.301	-42.3439
299410	297.409	-42.566
299411	297.519	-42.7879
299412	297.631	-43.0095
299413	297.743	-43.2309
299414	297.857	-43.4521
299415	297.972	-43.673
299416	298.088	-43.8937
299417	298.206	-44.1142
299418	298.325	-44.3344
299419	298.445	-44.5544
299420	298.566	-44.7741
299421	298.689	-44.9936
299422	298.814	-45.2128
299423	298.939	-45.4318
299424	299.067	-45.6505
299425	299.195	-45.8689
299426	299.325	-46.087
299427	299.457	-46.3049
299428	299.59	-46.5224
299429	299.725	-46.7397
299430	299.861	-46.9567
299431	299.999	-47.1734
299432	300.138	-47.3898
299433	300.279	-47.6059
299434	300.421	-47.8217
299435	300.565	-48.0372
299436	300.711	-48.2523
299437	300.859	-48.4671
299438	301.008	-48.6816
299439	301.159	-48.8958
299440	301.312	-49.1096
299441	301.467	-49.323
299442	301.623	-49.5361
299443	301.781	-49.7489
299444	301.941	-49.9612
299445	302.103	-50.1732
299446	302.267	-50.3849
299447	302.433	-50.5961
299448	302.601	-50.807
299449	302.771	-51.0174
299450	302.943	-51.2275
299451	303.117	-51.4371
299452	303.293	-51.6464
299453	303.471	-51.8552
299454	303.651	-52.0636
299455	303.834	-52.2715
299456	304.018	-52.479
299457	304.205	-52.686
299458	304.394	-52.8926
299459	304.586	-53.0987
299460	304.78	-53.3044
299461	304.976	-53.5095
299462	305.174	-53.7142
299463	305.375	-53.9183
299464	305.579	-54.122
299465	305.785	-54.3251
299466	305.993	-54.5277
299467	306.204	-54.7298
299468	306.418	-54.9313
299469	306.635	-55.1322
299470	306.854	-55.3326
299471	307.075	-55.5324
299472	307.3	-55.7317
299473	307.527	-55.9303
299474	307.758	-56.1283
299475	307.991	-56.3257
299476	308.227	-56.5225
299477	308.466	-56.7186
299478	308.708	-56.9141
299479	308.953	-57.109
299480	309.201	-57.3031
299481	309.453	-57.4966
299482	309.707	-57.6893
299483	309.965	-57.8814
299484	310.226	-58.0727
299485	310.49	-58.2632
299486	310.758	-58.4531
299487	311.029	-58.6421
299488	311.304	-58.8304
299489	311.582	-59.0179
299490	311.864	-59.2046
299491	312.149	-59.3904
299492	312.438	-59.5754
299493	312.731	-59.7596
299494	313.027	-59.9428
299495	313.328	-60.1252
299496	313.632	-60.3067
299497	313.94	-60.4873
299498	314.252	-60.6669
299499	314.568	-60.8456
299500	314.888	-61.0233
299501	315.213	-61.2
299502	315.541	-61.3757
299503	315.874	-61.5504
299504	316.211	-61.724
299505	316.552	-61.8965
299506	316.898	-62.068
299507	317.248	-62.2384
299508	317.602	-62.4076
299509	317.961	-62.5757
299510	318.325	-62.7426
299511	318.694	-62.9083
299512	319.067	-63.0728
299513	319.444	-63.2361
299514	319.827	-63.3981
299515	320.215	-63.5588
299516	320.607	-63.7183
299517	321.004	-63.8764
299518	321.407	-64.0331
299519	321.814	-64.1885
299520	322.226	-64.3424
380160	273.067	-77.1449
380161	273.13	-77.3946
380162	273.195	-77.6442
380163	273.262	-77.8939
380164	273.333	-78.1435
380165	273.406	-78.3931
380166	273.482	-78.6427
380167	273.562	-78.8923
380168	273.646	-79.1419
380169	273.733	-79.3914
380170	273.824	-79.6409
380171	273.92	-79.8904
380172	274.021	-80.1398
380173	274.126	-80.3893
380174	274.238	-80.6387
380175	274.355	-80.888
380176	274.479	-81.1373
380177	274.61	-81.3866
380178	274.749	-81.6358
380179	274.896	-81.885
380180	275.052	-82.1341
380181	275.218	-82.3832
380182	275.396	-82.6321
380183	275.586	-82.8811
380184	275.789	-83.1299
380185	276.008	-83.3786
380186	276.244	-83.6273
380187	276.499	-83.8758
380188	276.775	-84.1242
380189	277.075	-84.3724
380190	277.403	-84.6205
380191	277.763	-84.8684
380192	278.159	-85.116
380193	278.597	-85.3634
380194	279.084	-85.6106
380195	279.629	-85.8573
380196	280.243	-86.1036
380197	280.939	-86.3495
380198	281.736	-86.5947
380199	282.656	-86.8392
380200	283.729	-87.0827
380201	284.998	-87.325
380202	286.518	-87.5657
380203	288.369	-87.8043
380204	290.668	-88.0402
380205	293.59	-88.2719
380206	297.402	-88.4979
380207	302.531	-88.7148
380208	309.657	-88.9174
380209	319.812	-89.096
380210	334.228	-89.2334
380211	353.12	-89.3049
380212	13.5929	-89.2903
380213	31.1553	-89.1943
380214	44.0579	-89.0409
380215	53.0836	-88.8531
380216	59.459	-88.645
380217	64.0963	-88.4246
380218	67.5793	-88.1965
380219	70.2729	-87.9632
380220	72.4095	-87.7264
380221	74.1414	-87.487
380222	75.5712	-87.2457
380223	76.7703	-87.0029
380224	77.7896	-86.7591
380225	78.6662	-86.5144
380226	79.4278	-86.2689
380227	80.0955	-86.0229
380228	80.6855	-85.7765
380229	81.2106	-85.5296
380230	81.6808	-85.2824
380231	82.1043	-85.0349
380232	82.4877	-84.7871
380233	82.8364	-84.5392
380234	83.155	-84.2911
380235	83.4471	-84.0428
380236	83.716	-83.7943
380237	83.9643	-83.5458
380238	84.1942	-83.2971
380239	84.4079	-83.0483
380240	84.6068	-82.7995
380241	84.7926	-82.5505
380242	84.9664	-82.3015
380243	85.1295	-82.0524
380244	85.2827	-81.8033
380245	85.4269	-81.5541
380246	85.563	-81.3049
380247	85.6916	-81.0556
380248	85.8133	-80.8063
380249	85.9286	-80.5569
380250	86.0381	-80.3075
380251	86.1422	-80.0581
380252	86.2412	-79.8086
380253	86.3356	-79.5591
380254	86.4256	-79.3096
380255	86.5116	-79.0601
380256	86.5939	-78.8105
380257	86.6726	-78.5609
380258	86.748	-78.3113
380259	86.8203	-78.0617
380260	86.8897	-77.8121
380261	86.9564	-77.5624
380262	87.0205	-77.3127
380263	87.0823	-77.063
380264	87.1417	-76.8133
380265	87.199	-76.5636
380266	87.2542	-76.3139
380267	87.3075	-76.0642
380268	87.359	-75.8144
380269	87.4088	-75.5647
380270	87.4569	-75.3149
380271	87.5035	-75.0651
380272	87.5486	-74.8153
380273	87.5922	-74.5655
380274	87.6346	-74.3157
380275	87.6756	-74.0659
380276	87.7154	-73.8161
380277	87.7541	-73.5663
380278	87.7917	-73.3164
380279	87.8282	-73.0666
380280	87.8636	-72.8167
380281	87.8981	-72.5669
380282	87.9317	-72.317
380283	87.9644	-72.0672
380284	87.9962	-71.8173
380285	88.0272	-71.5674
380286	88.0574	-71.3176
380287	88.0869	-71.0677
380288	88.1156	-70.8178
380289	88.1437	-70.5679
380290	88.171	-70.318
380291	88.1977	-70.0681
380292	88.2238	-69.8182
380293	88.2493	-69.5683
380294	88.2742	-69.3184
380295	88.2986	-69.0685
380296	88.3224	-68.8186
380297	88.3457	-68.5687
380298	88.3685	-68.3187
380299	88.3908	-68.0688
380300	88.4127	-67.8189
380301	88.4341	-67.5689
380302	88.455	-67.319
380303	88.4756	-67.0691
380304	88.4957	-66.8191
380305	88.5155	-66.5692
380306	88.5348	-66.3193
380307	88.5538	-66.0693
380308	88.5724	-65.8194
380309	88.5907	-65.5694
380310	88.6086	-65.3195
380311	88.6263	-65.0695
380312	88.6435	-64.8196
380313	88.6605	-64.5696
380314	88.6772	-64.3197
380315	88.6936	-64.0697
380316	88.7097	-63.8197
380317	88.7256	-63.5698
380318	88.7412	-63.3198
380319	88.7565	-63.0698
380320	88.7716	-62.8199
380321	88.7864	-62.5699
380322	88.801	-62.3199
380323	88.8153	-62.07
380324	88.8295	-61.82
380325	88.8434	-61.57
380326	88.8571	-61.32
380327	88.8706	-61.0701
380328	88.8838	-60.8201
380329	88.8969	-60.5701
380330	88.9098	-60.3201
380331	88.9225	-60.0701
380332	88.9351	-59.8202
380333	88.9474	-59.5702
380334	88.9596	-59.3202
380335	88.9716	-59.0702
380336	88.9835	-58.8202
380337	88.9951	-58.5702
380338	89.0067	-58.3202
380339	89.0181	-58.0703
380340	89.0293	-57.8203
380341	89.0404	-57.5703
380342	89.0513	-57.3203
380343	89.0621	-57.0703
380344	89.0727	-56.8203
380345	89.0833	-56.5703
380346	89.0937	-56.3203
380347	89.1039	-56.0703
380348	89.1141	-55.8203
380349	89.1241	-55.5703
380350	89.134	-55.3203
380351	89.1438	-55.0703
380352	89.1535	-54.8203
380353	89.163	-54.5703
380354	89.1725	-54.3203
380355	89.1818	-54.0703
380356	89.1911	-53.8203
380357	89.2002	-53.5703
380358	89.2093	-53.3203
380359	89.2182	-53.0703
380360	89.2271	-52.8203
380361	89.2358	-52.5703
380362	89.2445	-52.3203
380363	89.2531	-52.0703
380364	89.2616	-51.8203
380365	89.27	-51.5703
380366	89.2783	-51.3203
380367	89.2865	-51.0703
380368	89.2947	-50.8202
380369	89.3027	-50.5702
380370	89.3107	-50.3202
380371	89.3187	-50.0702
380372	89.3265	-49.8202
380373	89.3343	-49.5702
380374	89.342	-49.3202
380375	89.3496	-49.0702
380376	89.3572	-48.8202
380377	89.3646	-48.5701
380378	89.3721	-48.3201
380379	89.3794	-48.0701
380380	89.3867	-47.8201
380381	89.394	-47.5701
380382	89.4011	-47.3201
380383	89.4082	-47.0701
380384	89.4153	-46.8201
380385	89.4223	-46.57
380386	89.4292	-46.32
380387	89.4361	-46.07
380388	89.4429	-45.82
380389	89.4497	-45.57
380390	89.4564	-45.32
380391	89.4631	-45.0699
380392	89.4697	-44.8199
380393	89.4762	-44.5699
380394	89.4828	-44.3199
380395	89.4892	-44.0699
380396	89.4956	-43.8199
380397	89.502	-43.5698
380398	89.5083	-43.3198
380399	89.5146	-43.0698
380400	89.5208	-42.8198
380401	89.527	-42.5698
380402	89.5332	-42.3197
380403	89.5393	-42.0697
380404	89.5454	-41.8197
380405	89.5514	-41.5697
380406	89.5574	-41.3197
380407	89.5633	-41.0696
380408	89.5692	-40.8196
380409	89.5751	-40.5696
380410	89.5809	-40.3196
380411	89.5867	-40.0695
380412	89.5925	-39.8195
380413	89.5982	-39.5695
380414	89.6039	-39.3195
380415	89.6095	-39.0695
380416	89.6151	-38.8194
380417	89.6207	-38.5694
380418	89.6263	-38.3194
380419	89.6318	-38.0694
380420	89.6373	-37.8193
380421	89.6428	-37.5693
380422	89.6482	-37.3193
380423	89.6536	-37.0693
380424	89.659	-36.8192
380425	89.6643	-36.5692
380426	89.6696	-36.3192
380427	89.6749	-36.0692
380428	89.6802	-35.8192
380429	89.6854	-35.5691
380430	89.6906	-35.3191
380431	89.6958	-35.0691
380432	89.7009	-34.8191
380433	89.7061	-34.569
380434	89.7112	-34.319
380435	89.7162	-34.069
380436	89.7213	-33.819
380437	89.7263	-33.5689
380438	89.7313	-33.3189
380439	89.7363	-33.0689
380440	89.7413	-32.8188
380441	89.7462	-32.5688
380442	89.7512	-32.3188
380443	89.7561	-32.0688
380444	89.7609	-31.8187
380445	89.7658	-31.5687
380446	89.7706	-31.3187
380447	89.7755	-31.0687
380448	89.7803	-30.8186
380449	89.785	-30.5686
380450	89.7898	-30.3186
380451	89.7946	-30.0686
380452	89.7993	-29.8185
380453	89.804	-29.5685
380454	89.8087	-29.3185
380455	89.8134	-29.0684
380456	89.818	-28.8184
380457	89.8227	-28.5684
380458	89.8273	-28.3184
380459	89.8319	-28.0683
380460	89.8365	-27.8183
380461	89.8411	-27.5683
380462	89.8456	-27.3183
380463	89.8502	-27.0682
380464	89.8547	-26.8182
380465	89.8592	-26.5682
380466	89.8637	-26.3181
380467	89.8682	-26.0681
380468	89.8727	-25.8181
380469	89.8772	-25.5681
380470	89.8816	-25.318
380471	89.8861	-25.068
380472	89.8905	-24.818
380473	89.8949	-24.5679
380474	89.8993	-24.3179
380475	89.9037	-24.0679
380476	89.9081	-23.8179
380477	89.9125	-23.5678
380478	89.9168	-23.3178
380479	89.9212	-23.0678
380480	89.9255	-22.8177
380481	89.9298	-22.5677
380482	89.9341	-22.3177
380483	89.9385	-22.0677
380484	89.9428	-21.8176
380485	89.947	-21.5676
380486	89.9513	-21.3176
380487	89.9556	-21.0675
380488	89.9599	-20.8175
380489	89.9641	-20.5675
380490	89.9684	-20.3175
380491	89.9726	-20.0674
380492	89.9768	-19.8174
380493	89.9811	-19.5674
380494	89.9853	-19.3173
380495	89.9895	-19.0673
380496	89.9937	-18.8173
380497	89.9979	-18.5673
380498	90.0021	-18.3172
380499	90.0062	-18.0672
380500	90.0104	-17.8172
380501	90.0146	-17.5671
380502	90.0188	-17.3171
380503	90.0229	-17.0671
380504	90.0271	-16.8171
380505	90.0312	-16.567
380506	90.0354	-16.317
380507	90.0395	-16.067
380508	90.0436	-15.8169
380509	90.0477	-15.5669
380510	90.0519	-15.3169
380511	90.056	-15.0669
380512	90.0601	-14.8168
380513	90.0642	-14.5668
380514	90.0683	-14.3168
380515	90.0724	-14.0667
380516	90.0765	-13.8167
380517	90.0806	-13.5667
380518	90.0847	-13.3166
380519	90.0888	-13.0666
380520	90.0929	-12.8166
380521	90.097	-12.5666
380522	90.1011	-12.3165
380523	90.1052	-12.0665
380524	90.1092	-11.8165
380525	90.1133	-11.5665
380526	90.1174	-11.3164
380527	90.1215	-11.0664
380528	90.1255	-10.8164
380529	90.1296	-10.5663
380530	90.1337	-10.3163
380531	90.1378	-10.0663
380532	90.1418	-9.81625
380533	90.1459	-9.56623
380534	90.15	-9.3162
380535	90.154	-9.06617
380536	90.1581	-8.81614
380537	90.1622	-8.56611
380538	90.1662	-8.31609
380539	90.1703	-8.06606
380540	90.1744	-7.81603
380541	90.1784	-7.566
380542	90.1825	-7.31598
380543	90.1866	-7.06595
380544	90.1907	-6.81592
380545	90.1947	-6.56589
380546	90.1988	-6.31587
380547	90.2029	-6.06584
380548	90.207	-5.81581
380549	90.2111	-5.56578
380550	90.2152	-5.31576
380551	90.2192	-5.06573
380552	90.2233	-4.8157
380553	90.2274	-4.56568
380554	90.2315	-4.31565
380555	90.2356	-4.06562
380556	90.2397	-3.8156
380557	90.2438	-3.56557
380558	90.2479	-3.31554
380559	90.252	-3.06552
380560	90.2562	-2.81549
380561	90.2603	-2.56547
380562	90.2644	-2.31544
380563	90.2685	-2.06541
380564	90.2727	-1.81539
380565	90.2768	-1.56536
380566	90.2809	-1.31534
380567	90.2851	-1.06531
380568	90.2892	-0.815285
380569	90.2934	-0.56526
380570	90.2976	-0.315235
380571	90.3017	-0.0652096
380572	90.3059	0.184815
380573	90.3101	0.43484
380574	90.3143	0.684865
380575	90.3185	0.93489
380576	90.3227	1.18491
380577	90.3269	1.43494
380578	90.3311	1.68496
380579	90.3353	1.93499
380580	90.3395	2.18501
380581	90.3438	2.43504
380582	90.348	2.68506
380583	90.3522	2.93508
380584	90.3565	3.18511
380585	90.3608	3.43513
380586	90.365	3.68515
380587	90.3693	3.93518
380588	90.3736	4.1852
380589	90.3779	4.43522
380590	90.3822	4.68525
380591	90.3865	4.93527
380592	90.3908	5.18529
380593	90.3952	5.43532
380594	90.3995	5.68534
380595	90.4039	5.93536
380596	90.4082	6.18538
380597	90.4126	6.4354
380598	90.417	6.68543
380599	90.4214	6.93545
380600	90.4258	7.18547
380601	90.4302	7.43549
380602	90.4346	7.68551
380603	90.4391	7.93553
380604	90.4435	8.18555
380605	90.448	8.43557
380606	90.4524	8.6856
380607	90.4569	8.93562
380608	90.4614	9.18564
380609	90.4659	9.43566
380610	90.4705	9.68568
380611	90.475	9.9357
380612	90.4795	10.1857
380613	90.4841	10.4357
380614	90.4887	10.6858
380615	90.4933	10.9358
380616	90.4979	11.1858
380617	90.5025	11.4358
380618	90.5071	11.6858
380619	90.5117	11.9358
380620	90.5164	12.1859
380621	90.5211	12.4359
380622	90.5258	12.6859
380623	90.5305	12.9359
380624	90.5352	13.1859
380625	90.5399	13.436
380626	90.5447	13.686
380627	90.5494	13.936
380628	90.5542	14.186
380629	90.559	14.436
380630	90.5638	14.686
380631	90.5687	14.9361
380632	90.5735	15.1861
380633	90.5784	15.4361
380634	90.5833	15.6861
380635	90.5882	15.9361
380636	90.5931	16.1861
380637	90.5981	16.4361
380638	90.603	16.6862
380639	90.608	16.9362
380640	90.613	17.1862
380641	90.618	17.4362
380642	90.6231	17.6862
380643	90.6282	17.9362
380644	90.6332	18.1862
380645	90.6383	18.4362
380646	90.6435	18.6863
380647	90.6486	18.9363
380648	90.6538	19.1863
380649	90.659	19.4363
380650	90.6642	19.6863
380651	90.6694	19.9363
380652	90.6747	20.1863
380653	90.68	20.4363
380654	90.6853	20.6863
380655	90.6906	20.9364
380656	90.696	21.1864
380657	90.7014	21.4364
380658	90.7068	21.6864
380659	90.7122	21.9364
380660	90.7177	22.1864
380661	90.7232	22.4364
380662	90.7287	22.6864
380663	90.7342	22.9364
380664	90.7398	23.1864
380665	90.7454	23.4364
380666	90.751	23.6864
380667	90.7566	23.9364
380668	90.7623	24.1865
380669	90.768	24.4365
380670	90.7738	24.6865
380671	90.7795	24.9365
380672	90.7853	25.1865
380673	90.7912	25.4365
380674	90.797	25.6865
380675	90.8029	25.9365
380676	90.8088	26.1865
380677	90.8148	26.4365
380678	90.8208	26.6865
380679	90.8268	26.9365
380680	90.8329	27.1865
380681	90.8389	27.4365
380682	90.8451	27.6865
380683	90.8512	27.9365
380684	90.8574	28.1865
380685	90.8637	28.4365
380686	90.8699	28.6865
380687	90.8762	28.9365
380688	90.8826	29.1865
380689	90.889	29.4365
380690	90.8954	29.6865
380691	90.9019	29.9365
380692	90.9084	30.1865
380693	90.9149	30.4365
380694	90.9215	30.6865
380695	90.9281	30.9365
380696	90.9348	31.1864
380697	90.9415	31.4364
380698	90.9482	31.6864
380699	90.955	31.9364
380700	90.9619	32.1864
380701	90.9688	32.4364
380702	90.9757	32.6864
380703	90.9827	32.9364
380704	90.9897	33.1864
380705	90.9968	33.4364
380706	91.0039	33.6864
380707	91.0111	33.9363
380708	91.0183	34.1863
380709	91.0256	34.4363
380710	91.0329	34.6863
380711	91.0403	34.9363
380712	91.0477	35.1863
380713	91.0552	35.4363
380714	91.0628	35.6862
380715	91.0704	35.9362
380716	91.078	36.1862
380717	91.0857	36.4362
380718	91.0935	36.6862
380719	91.1013	36.9362
380720	91.1092	37.1861
380721	91.1171	37.4361
380722	91.1251	37.6861
380723	91.1332	37.9361
380724	91.1413	38.186
380725	91.1495	38.436
380726	91.1578	38.686
380727	91.1661	38.936
380728	91.1745	39.1859
380729	91.183	39.4359
380730	91.1915	39.6859
380731	91.2001	39.9359
380732	91.2088	40.1858
380733	91.2176	40.4358
380734	91.2264	40.6858
380735	91.2353	40.9357
380736	91.2443	41.1857
380737	91.2533	41.4357
380738	91.2625	41.6856
380739	91.2717	41.9356
380740	91.281	42.1856
380741	91.2904	42.4355
380742	91.2998	42.6855
380743	91.3094	42.9354
380744	91.319	43.1854
380745	91.3287	43.4354
380746	91.3385	43.6853
380747	91.3484	43.9353
380748	91.3584	44.1852
380749	91.3685	44.4352
380750	91.3787	44.6851
380751	91.389	44.9351
380752	91.3994	45.185
380753	91.4099	45.435
380754	91.4205	45.6849
380755	91.4312	45.9349
380756	91.442	46.1848
380757	91.4529	46.4348
380758	91.4639	46.6847
380759	91.475	46.9347
380760	91.4863	47.1846
380761	91.4976	47.4345
380762	91.5091	47.6845
380763	91.5207	47.9344
380764	91.5324	48.1844
380765	91.5443	48.4343
380766	91.5563	48.6842
380767	91.5684	48.9342
380768	91.5806	49.1841
380769	91.593	49.434
380770	91.6055	49.6839
380771	91.6181	49.9339
380772	91.6309	50.1838
380773	91.6439	50.4337
380774	91.657	50.6836
380775	91.6702	50.9336
380776	91.6836	51.1835
380777	91.6971	51.4334
380778	91.7109	51.6833
380779	91.7247	51.9332
380780	91.7388	52.1831
380781	91.753	52.433
380782	91.7674	52.6829
380783	91.7819	52.9328
380784	91.7967	53.1827
380785	91.8116	53.4326
380786	91.8267	53.6825
380787	91.842	53.9324
380788	91.8575	54.1823
380789	91.8732	54.4322
380790	91.8891	54.6821
380791	91.9052	54.932
380792	91.9216	55.1819
380793	91.9381	55.4317
380794	91.9549	55.6816
380795	91.9719	55.9315
380796	91.9891	56.1814
380797	92.0066	56.4312
380798	92.0243	56.6811
380799	92.0423	56.931
380800	92.0605	57.1808
380801	92.0789	57.4307
380802	92.0977	57.6806
380803	92.1167	57.9304
380804	92.136	58.1803
380805	92.1556	58.4301
380806	92.1755	58.6799
380807	92.1957	58.9298
380808	92.2162	59.1796
380809	92.237	59.4295
380810	92.2581	59.6793
380811	92.2795	59.9291
380812	92.3013	60.1789
380813	92.3235	60.4287
380814	92.346	60.6786
380815	92.3689	60.9284
380816	92.3921	61.1782
380817	92.4157	61.428
380818	92.4398	61.6778
380819	92.4642	61.9276
380820	92.4891	62.1773
380821	92.5144	62.4271
380822	92.5401	62.6769
380823	92.5663	62.9267
380824	92.5929	63.1764
380825	92.62	63.4262
380826	92.6476	63.676
380827	92.6758	63.9257
380828	92.7044	64.1755
380829	92.7336	64.4252
380830	92.7633	64.6749
380831	92.7936	64.9246
380832	92.8245	65.1744
380833	92.856	65.4241
380834	92.8882	65.6738
380835	92.9209	65.9235
380836	92.9543	66.1732
380837	92.9885	66.4229
380838	93.0233	66.6725
380839	93.0588	66.9222
380840	93.0951	67.1718
380841	93.1322	67.4215
380842	93.1701	67.6711
380843	93.2088	67.9208
380844	93.2484	68.1704
380845	93.2888	68.42
380846	93.3302	68.6696
380847	93.3726	68.9192
380848	93.4159	69.1688
380849	93.4602	69.4183
380850	93.5056	69.6679
380851	93.5522	69.9174
380852	93.5998	70.1669
380853	93.6487	70.4165
380854	93.6987	70.666
380855	93.7501	70.9154
380856	93.8028	71.1649
380857	93.8569	71.4144
380858	93.9124	71.6638
380859	93.9694	71.9132
380860	94.028	72.1626
380861	94.0882	72.412
380862	94.1501	72.6614
380863	94.2138	72.9107
380864	94.2793	73.1601
380865	94.3468	73.4094
380866	94.4163	73.6586
380867	94.4879	73.9079
380868	94.5618	74.1571
380869	94.638	74.4063
380870	94.7166	74.6555
380871	94.7977	74.9047
380872	94.8816	75.1538
380873	94.9683	75.4029
380874	95.058	75.6519
380875	95.1507	75.9009
380876	95.2468	76.1499
380877	95.3464	76.3989
380878	95.4496	76.6478
380879	95.5568	76.8966
380880	95.668	77.1454
380881	95.7836	77.3942
380882	95.9037	77.6429
380883	96.0288	77.8915
380884	96.1591	78.1401
380885	96.2949	78.3886
380886	96.4366	78.6371
380887	96.5846	78.8855
380888	96.7393	79.1338
380889	96.9012	79.382
380890	97.0708	79.6302
380891	97.2487	79.8782
380892	97.4354	80.1262
380893	97.6318	80.374
380894	97.8384	80.6217
380895	98.0562	80.8693
380896	98.286	81.1168
380897	98.529	81.3641
380898	98.7862	81.6112
380899	99.059	81.8582
380900	99.3488	82.105
380901	99.6572	82.3515
380902	99.986	82.5978
380903	100.337	82.8439
380904	100.714	83.0897
380905	101.118	83.3351
380906	101.553	83.5802
380907	102.022	83.8249
380908	102.53	84.0692
380909	103.081	84.3129
380910	103.682	84.5561
380911	104.338	84.7987
380912	105.059	85.0404
380913	105.853	85.2814
380914	106.732	85.5213
380915	107.711	85.76
380916	108.805	85.9974
380917	110.038	86.2331
380918	111.433	86.4669
380919	113.026	86.6983
380920	114.856	86.9267
380921	116.978	87.1515
380922	119.459	87.3717
380923	122.386	87.5862
380924	125.874	87.7931
380925	130.063	87.9901
380926	135.128	88.1742
380927	141.268	88.3409
380928	148.671	88.4845
380929	157.44	88.5978
380930	167.469	88.6732
380931	178.329	88.704
380932	189.304	88.687
380933	199.634	88.624
380934	208.794	88.5209
380935	216.59	88.3853
380936	223.079	88.2246
380937	228.436	88.0451
380938	232.86	87.8515
380939	236.535	87.6471
380940	239.613	87.4347
380941	242.213	87.216
380942	244.432	86.9924
380943	246.341	86.765
380944	247.998	86.5344
380945	249.447	86.3013
380946	250.723	86.0661
380947	251.856	85.8292
380948	252.866	85.5908
380949	253.773	85.3512
380950	254.59	85.1106
380951	255.331	84.869
380952	256.005	84.6267
380953	256.621	84.3837
380954	257.186	84.1401
380955	257.706	83.896
380956	258.186	83.6514
380957	258.631	83.4064
380958	259.043	83.161
380959	259.427	82.9153
380960	259.786	82.6694
380961	260.121	82.4231
380962	260.435	82.1766
380963	260.73	81.9299
380964	261.007	81.683
380965	261.269	81.4359
380966	261.516	81.1887
380967	261.749	80.9412
380968	261.971	80.6937
380969	262.18	80.446
380970	262.38	80.1982
380971	262.569	79.9503
380972	262.749	79.7023
380973	262.921	79.4541
380974	263.085	79.2059
380975	263.242	78.9577
380976	263.392	78.7093
380977	263.535	78.4608
380978	263.673	78.2123
380979	263.805	77.9638
380980	263.931	77.7151
380981	264.053	77.4664
380982	264.169	77.2177
380983	264.282	76.9689
380984	264.39	76.7201
380985	264.494	76.4712
380986	264.595	76.2223
380987	264.692	75.9733
380988	264.786	75.7243
380989	264.876	75.4752
380990	264.964	75.2262
380991	265.048	74.9771
380992	265.13	74.7279
380993	265.21	74.4788
380994	265.286	74.2296
380995	265.361	73.9803
380996	265.433	73.7311
380997	265.503	73.4818
380998	265.571	73.2325
380999	265.637	72.9832
381000	265.701	72.7339
381001	265.764	72.4845
381002	265.824	72.2351
381003	265.883	71.9857
381004	265.941	71.7363
381005	265.997	71.4869
381006	266.051	71.2374
381007	266.104	70.9879
381008	266.156	70.7385
381009	266.206	70.489
381010	266.255	70.2395
381011	266.303	69.9899
381012	266.35	69.7404
381013	266.396	69.4908
381014	266.44	69.2413
381015	266.484	68.9917
381016	266.526	68.7421
381017	266.568	68.4925
381018	266.608	68.2429
381019	266.648	67.9933
381020	266.687	67.7437
381021	266.725	67.494
381022	266.762	67.2444
381023	266.799	66.9947
381024	266.835	66.7451
381025	266.869	66.4954
381026	266.904	66.2457
381027	266.937	65.996
381028	266.97	65.7463
381029	267.002	65.4966
381030	267.034	65.2469
381031	267.065	64.9972
381032	267.095	64.7475
381033	267.125	64.4978
381034	267.154	64.248
381035	267.183	63.9983
381036	267.211	63.7485
381037	267.239	63.4988
381038	267.266	63.249
381039	267.293	62.9993
381040	267.319	62.7495
381041	267.345	62.4997
381042	267.37	62.2499
381043	267.395	62.0001
381044	267.419	61.7504
381045	267.444	61.5006
381046	267.467	61.2508
381047	267.49	61.001
381048	267.513	60.7511
381049	267.536	60.5013
381050	267.558	60.2515
381051	267.58	60.0017
381052	267.601	59.7519
381053	267.622	59.502
381054	267.643	59.2522
381055	267.664	59.0024
381056	267.684	58.7525
381057	267.704	58.5027
381058	267.723	58.2529
381059	267.742	58.003
381060	267.761	57.7532
381061	267.78	57.5033
381062	267.799	57.2534
381063	267.817	57.0036
381064	267.835	56.7537
381065	267.852	56.5038
381066	267.87	56.254
381067	267.887	56.0041
381068	267.904	55.7542
381069	267.921	55.5044
381070	267.937	55.2545
381071	267.953	55.0046
381072	267.969	54.7547
381073	267.985	54.5048
381074	268.001	54.2549
381075	268.016	54.005
381076	268.032	53.7551
381077	268.047	53.5052
381078	268.061	53.2553
381079	268.076	53.0054
381080	268.091	52.7555
381081	268.105	52.5056
381082	268.119	52.2557
381083	268.133	52.0058
381084	268.147	51.7559
381085	268.16	51.506
381086	268.174	51.2561
381087	268.187	51.0062
381088	268.2	50.7562
381089	268.213	50.5063
381090	268.226	50.2564
381091	268.239	50.0065
381092	268.251	49.7566
381093	268.264	49.5066
381094	268.276	49.2567
381095	268.288	49.0068
381096	268.3	48.7568
381097	268.312	48.5069
381098	268.324	48.257
381099	268.335	48.007
381100	268.347	47.7571
381101	268.358	47.5072
381102	268.369	47.2572
381103	268.38	47.0073
381104	268.391	46.7573
381105	268.402	46.5074
381106	268.413	46.2575
381107	268.424	46.0075
381108	268.434	45.7576
381109	268.445	45.5076
381110	268.455	45.2577
381111	268.465	45.0077
381112	268.476	44.7578
381113	268.486	44.5078
381114	268.496	44.2579
381115	268.505	44.0079
381116	268.515	43.7579
381117	268.525	43.508
381118	268.534	43.258
381119	268.544	43.0081
381120	268.553	42.7581
381121	268.563	42.5081
381122	268.572	42.2582
381123	268.581	42.0082
381124	268.59	41.7583
381125	268.599	41.5083
381126	268.608	41.2583
381127	268.617	41.0084
381128	268.625	40.7584
381129	268.634	40.5084
381130	268.643	40.2584
381131	268.651	40.0085
381132	268.66	39.7585
381133	268.668	39.5085
381134	268.676	39.2586
381135	268.684	39.0086
381136	268.693	38.7586
381137	268.701	38.5086
381138	268.709	38.2587
381139	268.717	38.0087
381140	268.724	37.7587
381141	268.732	37.5087
381142	268.74	37.2587
381143	268.748	37.0088
381144	268.755	36.7588
381145	268.763	36.5088
381146	268.77	36.2588
381147	268.778	36.0088
381148	268.785	35.7589
381149	268.793	35.5089
381150	268.8	35.2589
381151	268.807	35.0089
381152	268.814	34.7589
381153	268.821	34.5089
381154	268.828	34.2589
381155	268.835	34.009
381156	268.842	33.759
381157	268.849	33.509
381158	268.856	33.259
381159	268.863	33.009
381160	268.87	32.759
381161	268.876	32.509
381162	268.883	32.259
381163	268.89	32.009
381164	268.896	31.759
381165	268.903	31.509
381166	268.909	31.2591
381167	268.916	31.0091
381168	268.922	30.7591
381169	268.928	30.5091
381170	268.935	30.2591
381171	268.941	30.0091
381172	268.947	29.7591
381173	268.953	29.5091
381174	268.96	29.2591
381175	268.966	29.0091
381176	268.972	28.7591
381177	268.978	28.5091
381178	268.984	28.2591
381179	268.99	28.0091
381180	268.996	27.7591
381181	269.001	27.5091
381182	269.007	27.2591
381183	269.013	27.0091
381184	269.019	26.7591
381185	269.025	26.5091
381186	269.03	26.2591
381187	269.036	26.0091
381188	269.041	25.7591
381189	269.047	25.5091
381190	269.053	25.2591
381191	269.058	25.0091
381192	269.064	24.7591
381193	269.069	24.5091
381194	269.074	24.259
381195	269.08	24.009
381196	269.085	23.759
381197	269.091	23.509
381198	269.096	23.259
381199	269.101	23.009
381200	269.106	22.759
381201	269.112	22.509
381202	269.117	22.259
381203	269.122	22.009
381204	269.127	21.759
381205	269.132	21.509
381206	269.137	21.2589
381207	269.142	21.0089
381208	269.147	20.7589
381209	269.152	20.5089
381210	269.157	20.2589
381211	269.162	20.0089
381212	269.167	19.7589
381213	269.172	19.5089
381214	269.177	19.2589
381215	269.182	19.0088
381216	269.186	18.7588
381217	269.191	18.5088
381218	269.196	18.2588
381219	269.201	18.0088
381220	269.205	17.7588
381221	269.21	17.5088
381222	269.215	17.2588
381223	269.219	17.0087
381224	269.224	16.7587
381225	269.229	16.5087
381226	269.233	16.2587
381227	269.238	16.0087
381228	269.242	15.7587
381229	269.247	15.5086
381230	269.251	15.2586
381231	269.256	15.0086
381232	269.26	14.7586
381233	269.265	14.5086
381234	269.269	14.2586
381235	269.274	14.0085
381236	269.278	13.7585
381237	269.282	13.5085
381238	269.287	13.2585
381239	269.291	13.0085
381240	269.295	12.7584
381241	269.3	12.5084
381242	269.304	12.2584
381243	269.308	12.0084
381244	269.312	11.7584
381245	269.317	11.5084
381246	269.321	11.2583
381247	269.325	11.0083
381248	269.329	10.7583
381249	269.333	10.5083
381250	269.338	10.2582
381251	269.342	10.0082
381252	269.346	9.75821
381253	269.35	9.50819
381254	269.354	9.25816
381255	269.358	9.00814
381256	269.362	8.75812
381257	269.366	8.5081
381258	269.37	8.25808
381259	269.374	8.00805
381260	269.378	7.75803
381261	269.382	7.50801
381262	269.386	7.25799
381263	269.39	7.00796
381264	269.394	6.75794
381265	269.398	6.50792
381266	269.402	6.25789
381267	269.406	6.00787
381268	269.409	5.75784
381269	269.413	5.50782
381270	269.417	5.2578
381271	269.421	5.00777
381272	269.425	4.75775
381273	269.429	4.50772
381274	269.432	4.2577
381275	269.436	4.00767
381276	269.44	3.75765
381277	269.444	3.50762
381278	269.448	3.2576
381279	269.451	3.00757
381280	269.455	2.75754
381281	269.459	2.50752
381282	269.462	2.25749
381283	269.466	2.00747
381284	269.47	1.75744
381285	269.474	1.50741
381286	269.477	1.25739
381287	269.481	1.00736
381288	269.485	0.757332
381289	269.488	0.507305
381290	269.492	0.257278
381291	269.495	0.00725047
381292	269.499	-0.242777
381293	269.503	-0.492805
381294	269.506	-0.742832
381295	269.51	-0.99286
381296	269.513	-1.24289
381297	269.517	-1.49292
381298	269.52	-1.74294
381299	269.524	-1.99297
381300	269.528	-2.243
381301	269.531	-2.49303
381302	269.535	-2.74306
381303	269.538	-2.99309
381304	269.542	-3.24312
381305	269.545	-3.49315
381306	269.549	-3.74317
381307	269.552	-3.9932
381308	269.556	-4.24323
381309	269.559	-4.49326
381310	269.562	-4.74329
381311	269.566	-4.99332
381312	269.569	-5.24335
381313	269.573	-5.49338
381314	269.576	-5.74341
381315	269.58	-5.99344
381316	269.583	-6.24347
381317	269.586	-6.4935
381318	269.59	-6.74353
381319	269.593	-6.99356
381320	269.597	-7.24359
381321	269.6	-7.49362
381322	269.603	-7.74365
381323	269.607	-7.99369
381324	269.61	-8.24372
381325	269.613	-8.49375
381326	269.617	-8.74378
381327	269.62	-8.99381
381328	269.624	-9.24384
381329	269.627	-9.49387
381330	269.63	-9.7439
381331	269.634	-9.99394
381332	269.637	-10.244
381333	269.64	-10.494
381334	269.643	-10.744
381335	269.647	-10.9941
381336	269.65	-11.2441
381337	269.653	-11.4941
381338	269.657	-11.7442
381339	269.66	-11.9942
381340	269.663	-12.2442
381341	269.667	-12.4943
381342	269.67	-12.7443
381343	269.673	-12.9943
381344	269.676	-13.2444
381345	269.68	-13.4944
381346	269.683	-13.7444
381347	269.686	-13.9945
381348	269.689	-14.2445
381349	269.693	-14.4945
381350	269.696	-14.7445
381351	269.699	-14.9946
381352	269.702	-15.2446
381353	269.706	-15.4946
381354	269.709	-15.7447
381355	269.712	-15.9947
381356	269.715	-16.2447
381357	269.719	-16.4948
381358	269.722	-16.7448
381359	269.725	-16.9948
381360	269.728	-17.2449
381361	269.732	-17.4949
381362	269.735	-17.745
381363	269.738	-17.995
381364	269.741	-18.245
381365	269.745	-18.4951
381366	269.748	-18.7451
381367	269.751	-18.9951
381368	269.754	-19.2452
381369	269.757	-19.4952
381370	269.761	-19.7452
381371	269.764	-19.9953
381372	269.767	-20.2453
381373	269.77	-20.4953
381374	269.773	-20.7454
381375	269.777	-20.9954
381376	269.78	-21.2454
381377	269.783	-21.4955
381378	269.786	-21.7455
381379	269.79	-21.9955
381380	269.793	-22.2456
381381	269.796	-22.4956
381382	269.799	-22.7456
381383	269.802	-22.9957
381384	269.806	-23.2457
381385	269.809	-23.4957
381386	269.812	-23.7458
381387	269.815	-23.9958
381388	269.819	-24.2458
381389	269.822	-24.4959
381390	269.825	-24.7459
381391	269.828	-24.996
381392	269.832	-25.246
381393	269.835	-25.496
381394	269.838	-25.7461
381395	269.841	-25.9961
381396	269.844	-26.2461
381397	269.848	-26.4962
381398	269.851	-26.7462
381399	269.854	-26.9962
381400	269.857	-27.2463
381401	269.861	-27.4963
381402	269.864	-27.7463
381403	269.867	-27.9964
381404	269.871	-28.2464
381405	269.874	-28.4964
381406	269.877	-28.7465
381407	269.88	-28.9965
381408	269.884	-29.2466
381409	269.887	-29.4966
381410	269.89	-29.7466
381411	269.894	-29.9967
381412	269.897	-30.2467
381413	269.9	-30.4967
381414	269.903	-30.7468
381415	269.907	-30.9968
381416	269.91	-31.2468
381417	269.913	-31.4969
381418	269.917	-31.7469
381419	269.92	-31.9969
381420	269.923	-32.247
381421	269.927	-32.497
381422	269.93	-32.7471
381423	269.934	-32.9971
381424	269.937	-33.2471
381425	269.94	-33.4972
381426	269.944	-33.7472
381427	269.947	-33.9972
381428	269.95	-34.2473
381429	269.954	-34.4973
381430	269.957	-34.7473
381431	269.961	-34.9974
381432	269.964	-35.2474
381433	269.968	-35.4975
381434	269.971	-35.7475
381435	269.974	-35.9975
381436	269.978	-36.2476
381437	269.981	-36.4976
381438	269.985	-36.7476
381439	269.988	-36.9977
381440	269.992	-37.2477
381441	269.995	-37.4977
381442	269.999	-37.7478
381443	270.003	-37.9978
381444	270.006	-38.2479
381445	270.01	-38.4979
381446	270.013	-38.7479
381447	270.017	-38.998
381448	270.02	-39.248
381449	270.024	-39.498
381450	270.028	-39.7481
381451	270.031	-39.9981
381452	270.035	-40.2481
381453	270.039	-40.4982
381454	270.042	-40.7482
381455	270.046	-40.9982
381456	270.05	-41.2483
381457	270.053	-41.4983
381458	270.057	-41.7484
381459	270.061	-41.9984
381460	270.065	-42.2484
381461	270.068	-42.4985
381462	270.072	-42.7485
381463	270.076	-42.9985
381464	270.08	-43.2486
381465	270.084	-43.4986
381466	270.087	-43.7486
381467	270.091	-43.9987
381468	270.095	-44.2487
381469	270.099	-44.4988
381470	270.103	-44.7488
381471	270.107	-44.9988
381472	270.111	-45.2489
381473	270.115	-45.4989
381474	270.119	-45.7489
381475	270.123	-45.999
381476	270.127	-46.249
381477	270.131	-46.499
381478	270.135	-46.7491
381479	270.139	-46.9991
381480	270.144	-47.2491
381481	270.148	-47.4992
381482	270.152	-47.7492
381483	270.156	-47.9992
381484	270.16	-48.2493
381485	270.165	-48.4993
381486	270.169	-48.7494
381487	270.173	-48.9994
381488	270.178	-49.2494
381489	270.182	-49.4995
381490	270.186	-49.7495
381491	270.191	-49.9995
381492	270.195	-50.2496
381493	270.2	-50.4996
381494	270.204	-50.7496
381495	270.209	-50.9997
381496	270.213	-51.2497
381497	270.218	-51.4997
381498	270.223	-51.7498
381499	270.227	-51.9998
381500	270.232	-52.2498
381501	270.237	-52.4999
381502	270.242	-52.7499
381503	270.247	-52.9999
381504	270.251	-53.25
381505	270.256	-53.5
381506	270.261	-53.75
381507	270.266	-54.0001
381508	270.271	-54.2501
381509	270.276	-54.5001
381510	270.281	-54.7502
381511	270.287	-55.0002
381512	270.292	-55.2502
381513	270.297	-55.5003
381514	270.302	-55.7503
381515	270.308	-56.0003
381516	270.313	-56.2504
381517	270.319	-56.5004
381518	270.324	-56.7504
381519	270.33	-57.0005
381520	270.335	-57.2505
381521	270.341	-57.5005
381522	270.347	-57.7506
381523	270.353	-58.0006
381524	270.358	-58.2506
381525	270.364	-58.5007
381526	270.37	-58.7507
381527	270.376	-59.0007
381528	270.382	-59.2508
381529	270.389	-59.5008
381530	270.395	-59.7508
381531	270.401	-60.0008
381532	270.408	-60.2509
381533	270.414	-60.5009
381534	270.421	-60.7509
381535	270.427	-61.001
381536	270.434	-61.251
381537	270.441	-61.501
381538	270.448	-61.7511
381539	270.455	-62.0011
381540	270.462	-62.2511
381541	270.469	-62.5011
381542	270.476	-62.7512
381543	270.484	-63.0012
381544	270.491	-63.2512
381545	270.499	-63.5013
381546	270.506	-63.7513
381547	270.514	-64.0013
381548	270.522	-64.2513
381549	270.53	-64.5014
381550	270.538	-64.7514
381551	270.546	-65.0014
381552	270.555	-65.2514
381553	270.563	-65.5015
381554	270.572	-65.7515
381555	270.581	-66.0015
381556	270.59	-66.2515
381557	270.599	-66.5016
381558	270.608	-66.7516
381559	270.618	-67.0016
381560	270.627	-67.2516
381561	270.637	-67.5016
381562	270.647	-67.7517
381563	270.657	-68.0017
381564	270.668	-68.2517
381565	270.678	-68.5017
381566	270.689	-68.7518
381567	270.7	-69.0018
381568	270.711	-69.2518
381569	270.722	-69.5018
381570	270.734	-69.7518
381571	270.746	-70.0018
381572	270.758	-70.2519
381573	270.771	-70.5019
381574	270.783	-70.7519
381575	270.796	-71.0019
381576	270.809	-71.2519
381577	270.823	-71.5019
381578	270.837	-71.7519
381579	270.851	-72.002
381580	270.866	-72.252
381581	270.881	-72.502
381582	270.896	-72.752
381583	270.912	-73.002
381584	270.928	-73.252
381585	270.945	-73.502
381586	270.962	-73.752
381587	270.979	-74.002
381588	270.997	-74.252
381589	271.016	-74.502
381590	271.035	-74.752
381591	271.055	-75.002
381592	271.075	-75.252
381593	271.096	-75.502
381594	271.117	-75.752
381595	271.14	-76.002
381596	271.163	-76.252
381597	271.187	-76.5019
381598	271.211	-76.7519
381599	271.237	-77.0019
381600	271.263	-77.2519
426240	222.265	-74.2901
426241	221.603	-74.457
426242	220.927	-74.6217
426243	220.237	-74.7841
426244	219.531	-74.9443
426245	218.809	-75.102
426246	218.073	-75.2572
426247	217.32	-75.4099
426248	216.552	-75.5599
426249	215.767	-75.7073
426250	214.966	-75.8518
426251	214.148	-75.9934
426252	213.314	-76.132
426253	212.462	-76.2675
426254	211.594	-76.3999
426255	210.709	-76.5291
426256	209.806	-76.6548
426257	208.887	-76.7771
426258	207.95	-76.8959
426259	206.996	-77.011
426260	206.026	-77.1224
426261	205.038	-77.2299
426262	204.034	-77.3335
426263	203.013	-77.4331
426264	201.976	-77.5285
426265	200.924	-77.6197
426266	199.856	-77.7066
426267	198.773	-77.7891
426268	197.676	-77.867
426269	196.565	-77.9404
426270	195.44	-78.0091
426271	194.303	-78.073
426272	193.154	-78.1321
426273	191.994	-78.1863
426274	190.823	-78.2355
426275	189.643	-78.2797
426276	188.455	-78.3188
426277	187.259	-78.3527
426278	186.057	-78.3815
426279	184.849	-78.405
426280	183.637	-78.4233
426281	182.421	-78.4362
426282	181.203	-78.4439
426283	179.985	-78.4463
426284	178.766	-78.4433
426285	177.548	-78.435
426286	176.333	-78.4214
426287	175.121	-78.4026
426288	173.914	-78.3785
426289	172.712	-78.3491
426290	171.517	-78.3146
426291	170.33	-78.2749
426292	169.151	-78.2301
426293	167.982	-78.1804
426294	166.823	-78.1256
426295	165.675	-78.0659
426296	164.539	-78.0015
426297	163.416	-77.9322
426298	162.307	-77.8583
426299	161.211	-77.7798
426300	160.13	-77.6969
426301	159.064	-77.6095
426302	158.013	-77.5178
426303	156.978	-77.4219
426304	155.96	-77.3219
426305	154.957	-77.2178
426306	153.972	-77.1098
426307	153.003	-76.998
426308	152.051	-76.8825
426309	151.116	-76.7633
426310	150.199	-76.6406
426311	149.298	-76.5145
426312	148.415	-76.385
426313	147.549	-76.2522
426314	146.699	-76.1163
426315	145.867	-75.9774
426316	145.051	-75.8354
426317	144.252	-75.6906
426318	143.469	-75.543
426319	142.703	-75.3926
426320	141.952	-75.2397
426321	141.217	-75.0841
426322	140.498	-74.9262
426323	139.794	-74.7658
426324	139.105	-74.6031
426325	138.43	-74.4381
426326	137.77	-74.271
426327	137.125	-74.1018
426328	136.493	-73.9305
426329	135.875	-73.7572
426330	135.27	-73.5821
426331	134.678	-73.4051
426332	134.099	-73.2263
426333	133.533	-73.0457
426334	132.978	-72.8635
426335	132.436	-72.6796
426336	131.906	-72.4942
426337	131.386	-72.3072
426338	130.878	-72.1188
426339	130.381	-71.9289
426340	129.894	-71.7376
426341	129.418	-71.545
426342	128.952	-71.3511
426343	128.496	-71.1559
426344	128.049	-70.9595
426345	127.612	-70.762
426346	127.184	-70.5632
426347	126.764	-70.3634
426348	126.354	-70.1624
426349	125.952	-69.9604
426350	125.558	-69.7574
426351	125.172	-69.5534
426352	124.794	-69.3485
426353	124.424	-69.1426
426354	124.061	-68.9358
426355	123.706	-68.7282
426356	123.357	-68.5197
426357	123.016	-68.3103
426358	122.681	-68.1002
426359	122.353	-67.8893
426360	122.032	-67.6776
426361	121.716	-67.4652
426362	121.407	-67.2521
426363	121.104	-67.0382
426364	120.806	-66.8237
426365	120.514	-66.6086
426366	120.228	-66.3928
426367	119.947	-66.1764
426368	119.672	-65.9594
426369	119.401	-65.7417
426370	119.136	-65.5236
426371	118.875	-65.3048
426372	118.619	-65.0855
426373	118.368	-64.8657
426374	118.122	-64.6454
426375	117.88	-64.4246
426376	117.642	-64.2033
426377	117.409	-63.9815
426378	117.179	-63.7592
426379	116.954	-63.5365
426380	116.733	-63.3134
426381	116.515	-63.0898
426382	116.302	-62.8658
426383	116.092	-62.6414
426384	115.885	-62.4166
426385	115.683	-62.1914
426386	115.483	-61.9658
426387	115.287	-61.7399
426388	115.095	-61.5136
426389	114.905	-61.2869
426390	114.719	-61.0599
426391	114.536	-60.8326
426392	114.356	-60.6049
426393	114.178	-60.377
426394	114.004	-60.1487
426395	113.833	-59.9201
426396	113.664	-59.6911
426397	113.498	-59.462
426398	113.335	-59.2325
426399	113.174	-59.0027
426400	113.016	-58.7727
426401	112.86	-58.5424
426402	112.707	-58.3118
426403	112.556	-58.081
426404	112.408	-57.8499
426405	112.262	-57.6186
426406	112.118	-57.3871
426407	111.976	-57.1553
426408	111.836	-56.9233
426409	111.699	-56.6911
426410	111.564	-56.4586
426411	111.43	-56.2259
426412	111.299	-55.9931
426413	111.17	-55.76
426414	111.042	-55.5267
426415	110.917	-55.2932
426416	110.793	-55.0595
426417	110.672	-54.8256
426418	110.551	-54.5916
426419	110.433	-54.3574
426420	110.317	-54.1229
426421	110.202	-53.8884
426422	110.088	-53.6536
426423	109.977	-53.4187
426424	109.867	-53.1836
426425	109.758	-52.9483
426426	109.652	-52.7129
426427	109.546	-52.4773
426428	109.442	-52.2416
426429	109.34	-52.0058
426430	109.239	-51.7697
426431	109.139	-51.5336
426432	109.041	-51.2973
426433	108.944	-51.0609
426434	108.849	-50.8243
426435	108.754	-50.5876
426436	108.661	-50.3507
426437	108.57	-50.1138
426438	108.479	-49.8767
426439	108.39	-49.6395
426440	108.302	-49.4021
426441	108.216	-49.1647
426442	108.13	-48.9271
426443	108.046	-48.6894
426444	107.962	-48.4516
426445	107.88	-48.2137
426446	107.799	-47.9757
426447	107.719	-47.7375
426448	107.64	-47.4993
426449	107.562	-47.261
426450	107.485	-47.0225
426451	107.409	-46.784
426452	107.334	-46.5454
426453	107.261	-46.3066
426454	107.188	-46.0678
426455	107.116	-45.8289
426456	107.045	-45.5899
426457	106.974	-45.3508
426458	106.905	-45.1116
426459	106.837	-44.8723
426460	106.77	-44.633
426461	106.703	-44.3935
426462	106.637	-44.154
426463	106.572	-43.9144
426464	106.508	-43.6747
426465	106.445	-43.4349
426466	106.383	-43.1951
426467	106.321	-42.9552
426468	106.26	-42.7152
426469	106.2	-42.4751
426470	106.141	-42.235
426471	106.083	-41.9948
426472	106.025	-41.7545
426473	105.968	-41.5141
426474	105.911	-41.2737
426475	105.856	-41.0332
426476	105.801	-40.7927
426477	105.747	-40.5521
426478	105.693	-40.3114
426479	105.64	-40.0706
426480	105.588	-39.8298
426481	105.537	-39.589
426482	105.486	-39.3481
426483	105.436	-39.1071
426484	105.386	-38.866
426485	105.337	-38.625
426486	105.289	-38.3838
426487	105.241	-38.1426
426488	105.194	-37.9013
426489	105.147	-37.66
426490	105.102	-37.4187
426491	105.056	-37.1773
426492	105.011	-36.9358
426493	104.967	-36.6943
426494	104.924	-36.4527
426495	104.88	-36.2111
426496	104.838	-35.9694
426497	104.796	-35.7277
426498	104.754	-35.486
426499	104.714	-35.2442
426500	104.673	-35.0023
426501	104.633	-34.7604
426502	104.594	-34.5185
426503	104.555	-34.2765
426504	104.516	-34.0345
426505	104.479	-33.7925
426506	104.441	-33.5504
426507	104.404	-33.3082
426508	104.368	-33.066
426509	104.332	-32.8238
426510	104.296	-32.5816
426511	104.261	-32.3393
426512	104.227	-32.0969
426513	104.193	-31.8546
426514	104.159	-31.6122
426515	104.126	-31.3697
426516	104.093	-31.1273
426517	104.06	-30.8848
426518	104.028	-30.6422
426519	103.997	-30.3996
426520	103.966	-30.157
426521	103.935	-29.9144
426522	103.905	-29.6717
426523	103.875	-29.429
426524	103.846	-29.1863
426525	103.817	-28.9435
426526	103.788	-28.7007
426527	103.76	-28.4579
426528	103.732	-28.2151
426529	103.704	-27.9722
426530	103.677	-27.7293
426531	103.65	-27.4863
426532	103.624	-27.2434
426533	103.598	-27.0004
426534	103.572	-26.7574
426535	103.547	-26.5143
426536	103.522	-26.2713
426537	103.498	-26.0282
426538	103.474	-25.785
426539	103.45	-25.5419
426540	103.426	-25.2987
426541	103.403	-25.0556
426542	103.381	-24.8123
426543	103.358	-24.5691
426544	103.336	-24.3259
426545	103.314	-24.0826
426546	103.293	-23.8393
426547	103.272	-23.596
426548	103.251	-23.3526
426549	103.231	-23.1093
426550	103.21	-22.8659
426551	103.191	-22.6225
426552	103.171	-22.3791
426553	103.152	-22.1356
426554	103.133	-21.8922
426555	103.115	-21.6487
426556	103.097	-21.4052
426557	103.079	-21.1617
426558	103.061	-20.9182
426559	103.044	-20.6746
426560	103.027	-20.4311
426561	103.01	-20.1875
426562	102.994	-19.9439
426563	102.978	-19.7003
426564	102.962	-19.4567
426565	102.946	-19.213
426566	102.931	-18.9694
426567	102.916	-18.7257
426568	102.901	-18.482
426569	102.887	-18.2383
426570	102.873	-17.9946
426571	102.859	-17.7509
426572	102.846	-17.5071
426573	102.832	-17.2634
426574	102.819	-17.0196
426575	102.807	-16.7759
426576	102.794	-16.5321
426577	102.782	-16.2883
426578	102.77	-16.0445
426579	102.759	-15.8007
426580	102.747	-15.5568
426581	102.736	-15.313
426582	102.725	-15.0691
426583	102.715	-14.8253
426584	102.704	-14.5814
426585	102.694	-14.3375
426586	102.685	-14.0936
426587	102.675	-13.8497
426588	102.666	-13.6058
426589	102.657	-13.3619
426590	102.648	-13.118
426591	102.64	-12.874
426592	102.631	-12.6301
426593	102.623	-12.3861
426594	102.616	-12.1422
426595	102.608	-11.8982
426596	102.601	-11.6543
426597	102.594	-11.4103
426598	102.587	-11.1663
426599	102.581	-10.9223
426600	102.574	-10.6783
426601	102.568	-10.4343
426602	102.563	-10.1903
426603	102.557	-9.94631
426604	102.552	-9.70229
426605	102.547	-9.45827
426606	102.542	-9.21425
426607	102.537	-8.97022
426608	102.533	-8.72619
426609	102.529	-8.48215
426610	102.525	-8.23811
426611	102.522	-7.99407
426612	102.518	-7.75002
426613	102.515	-7.50597
426614	102.512	-7.26192
426615	102.51	-7.01787
426616	102.507	-6.77381
426617	102.505	-6.52975
426618	102.503	-6.2857
426619	102.501	-6.04163
426620	102.5	-5.79757
426621	102.499	-5.55351
426622	102.498	-5.30944
426623	102.497	-5.06538
426624	102.496	-4.82131
426625	102.496	-4.57725
426626	102.496	-4.33318
426627	102.496	-4.08912
426628	102.496	-3.84505
426629	102.497	-3.60099
426630	102.498	-3.35693
426631	102.499	-3.11286
426632	102.5	-2.8688
426633	102.502	-2.62474
426634	102.504	-2.38069
426635	102.506	-2.13663
426636	102.508	-1.89258
426637	102.51	-1.64853
426638	102.513	-1.40448
426639	102.516	-1.16043
426640	102.519	-0.916393
426641	102.522	-0.672354
426642	102.526	-0.428319
426643	102.53	-0.184287
426644	102.534	0.0597403
426645	102.538	0.303764
426646	102.543	0.547782
426647	102.547	0.791797
426648	102.552	1.03581
426649	102.558	1.27981
426650	102.563	1.52381
426651	102.569	1.7678
426652	102.575	2.01179
426653	102.581	2.25577
426654	102.587	2.49975
426655	102.594	2.74372
426656	102.601	2.98768
426657	102.608	3.23164
426658	102.615	3.47558
426659	102.623	3.71953
426660	102.631	3.96346
426661	102.639	4.20739
426662	102.647	4.4513
426663	102.655	4.69521
426664	102.664	4.93911
426665	102.673	5.18301
426666	102.682	5.42689
426667	102.692	5.67076
426668	102.701	5.91463
426669	102.711	6.15848
426670	102.722	6.40233
426671	102.732	6.64617
426672	102.743	6.88999
426673	102.754	7.1338
426674	102.765	7.37761
426675	102.776	7.6214
426676	102.788	7.86518
426677	102.8	8.10895
426678	102.812	8.35271
426679	102.824	8.59645
426680	102.837	8.84019
426681	102.85	9.08391
426682	102.863	9.32762
426683	102.876	9.57131
426684	102.89	9.81499
426685	102.904	10.0587
426686	102.918	10.3023
426687	102.932	10.546
426688	102.947	10.7896
426689	102.962	11.0332
426690	102.977	11.2768
426691	102.993	11.5204
426692	103.008	11.7639
426693	103.024	12.0075
426694	103.041	12.251
426695	103.057	12.4945
426696	103.074	12.738
426697	103.091	12.9815
426698	103.108	13.225
426699	103.126	13.4684
426700	103.144	13.7118
426701	103.162	13.9553
426702	103.18	14.1987
426703	103.199	14.442
426704	103.218	14.6854
426705	103.237	14.9287
426706	103.257	15.172
426707	103.277	15.4153
426708	103.297	15.6586
426709	103.317	15.9019
426710	103.338	16.1451
426711	103.359	16.3883
426712	103.38	16.6315
426713	103.402	16.8747
426714	103.424	17.1178
426715	103.446	17.361
426716	103.468	17.6041
426717	103.491	17.8471
426718	103.514	18.0902
426719	103.537	18.3332
426720	103.561	18.5762
426721	103.585	18.8192
426722	103.609	19.0622
426723	103.634	19.3051
426724	103.659	19.548
426725	103.684	19.7909
426726	103.71	20.0337
426727	103.736	20.2766
426728	103.762	20.5194
426729	103.789	20.7621
426730	103.815	21.0049
426731	103.843	21.2476
426732	103.87	21.4903
426733	103.898	21.733
426734	103.926	21.9756
426735	103.955	22.2182
426736	103.984	22.4607
426737	104.013	22.7033
426738	104.043	22.9458
426739	104.073	23.1883
426740	104.103	23.4307
426741	104.134	23.6731
426742	104.165	23.9155
426743	104.197	24.1578
426744	104.228	24.4001
426745	104.261	24.6424
426746	104.293	24.8846
426747	104.326	25.1269
426748	104.359	25.369
426749	104.393	25.6111
426750	104.427	25.8532
426751	104.462	26.0953
426752	104.497	26.3373
426753	104.532	26.5793
426754	104.568	26.8212
426755	104.604	27.0631
426756	104.641	27.305
426757	104.678	27.5468
426758	104.715	27.7886
426759	104.753	28.0303
426760	104.791	28.272
426761	104.83	28.5137
426762	104.869	28.7553
426763	104.909	28.9968
426764	104.949	29.2383
426765	104.989	29.4798
426766	105.03	29.7212
426767	105.071	29.9626
426768	105.113	30.2039
426769	105.156	30.4452
426770	105.198	30.6864
426771	105.242	30.9276
426772	105.285	31.1688
426773	105.33	31.4098
426774	105.375	31.6509
426775	105.42	31.8918
426776	105.466	32.1328
426777	105.512	32.3736
426778	105.559	32.6145
426779	105.606	32.8552
426780	105.654	33.0959
426781	105.702	33.3366
426782	105.751	33.5772
426783	105.801	33.8177
426784	105.851	34.0582
426785	105.901	34.2986
426786	105.953	34.5389
426787	106.004	34.7792
426788	106.057	35.0194
426789	106.11	35.2596
426790	106.163	35.4997
426791	106.217	35.7397
426792	106.272	35.9797
426793	106.327	36.2196
426794	106.383	36.4594
426795	106.44	36.6992
426796	106.497	36.9389
426797	106.555	37.1785
426798	106.614	37.418
426799	106.673	37.6575
426800	106.733	37.8969
426801	106.793	38.1362
426802	106.854	38.3754
426803	106.916	38.6146
426804	106.979	38.8537
426805	107.042	39.0927
426806	107.106	39.3316
426807	107.171	39.5704
426808	107.237	39.8092
426809	107.303	40.0479
426810	107.37	40.2864
426811	107.438	40.5249
426812	107.507	40.7633
426813	107.576	41.0016
426814	107.646	41.2399
426815	107.717	41.478
426816	107.789	41.716
426817	107.862	41.954
426818	107.935	42.1918
426819	108.01	42.4295
426820	108.085	42.6672
426821	108.161	42.9047
426822	108.238	43.1421
426823	108.316	43.3794
426824	108.395	43.6166
426825	108.475	43.8537
426826	108.556	44.0907
426827	108.638	44.3276
426828	108.72	44.5644
426829	108.804	44.801
426830	108.889	45.0376
426831	108.975	45.274
426832	109.061	45.5102
426833	109.149	45.7464
426834	109.238	45.9824
426835	109.328	46.2183
426836	109.419	46.4541
426837	109.512	46.6897
426838	109.605	46.9252
426839	109.699	47.1606
426840	109.795	47.3958
426841	109.892	47.6309
426842	109.99	47.8658
426843	110.089	48.1006
426844	110.19	48.3353
426845	110.292	48.5697
426846	110.395	48.8041
426847	110.499	49.0382
426848	110.605	49.2723
426849	110.712	49.5061
426850	110.821	49.7398
426851	110.931	49.9733
426852	111.042	50.2066
426853	111.155	50.4398
426854	111.269	50.6728
426855	111.384	50.9056
426856	111.502	51.1382
426857	111.62	51.3706
426858	111.741	51.6028
426859	111.863	51.8349
426860	111.986	52.0667
426861	112.111	52.2983
426862	112.238	52.5297
426863	112.367	52.761
426864	112.497	52.9919
426865	112.629	53.2227
426866	112.763	53.4533
426867	112.899	53.6836
426868	113.036	53.9137
426869	113.175	54.1435
426870	113.317	54.3732
426871	113.46	54.6025
426872	113.606	54.8316
426873	113.753	55.0605
426874	113.902	55.2891
426875	114.054	55.5174
426876	114.208	55.7455
426877	114.364	55.9733
426878	114.522	56.2008
426879	114.682	56.428
426880	114.845	56.6549
426881	115.01	56.8815
426882	115.177	57.1078
426883	115.347	57.3338
426884	115.52	57.5594
426885	115.695	57.7848
426886	115.873	58.0098
426887	116.053	58.2345
426888	116.236	58.4588
426889	116.422	58.6827
426890	116.61	58.9063
426891	116.802	59.1296
426892	116.996	59.3524
426893	117.193	59.5749
426894	117.394	59.7969
426895	117.597	60.0186
426896	117.804	60.2398
426897	118.014	60.4606
426898	118.227	60.681
426899	118.443	60.9009
426900	118.663	61.1204
426901	118.887	61.3394
426902	119.114	61.558
426903	119.345	61.776
426904	119.579	61.9936
426905	119.817	62.2106
426906	120.06	62.4271
426907	120.306	62.6431
426908	120.556	62.8586
426909	120.81	63.0734
426910	121.069	63.2877
426911	121.332	63.5015
426912	121.599	63.7146
426913	121.871	63.9271
426914	122.147	64.1389
426915	122.428	64.3501
426916	122.714	64.5607
426917	123.005	64.7706
426918	123.301	64.9797
426919	123.602	65.1882
426920	123.908	65.3959
426921	124.22	65.6029
426922	124.537	65.8091
426923	124.86	66.0145
426924	125.188	66.2191
426925	125.523	66.4228
426926	125.863	66.6257
426927	126.209	66.8277
426928	126.562	67.0288
426929	126.92	67.229
426930	127.286	67.4283
426931	127.658	67.6265
426932	128.037	67.8238
426933	128.423	68.02
426934	128.815	68.2152
426935	129.216	68.4093
426936	129.623	68.6023
426937	130.038	68.7941
426938	130.461	68.9848
426939	130.892	69.1742
426940	131.33	69.3624
426941	131.777	69.5493
426942	132.232	69.735
426943	132.696	69.9192
426944	133.169	70.1021
426945	133.65	70.2835
426946	134.14	70.4635
426947	134.64	70.642
426948	135.149	70.8189
426949	135.668	70.9943
426950	136.196	71.168
426951	136.735	71.34
426952	137.283	71.5103
426953	137.842	71.6788
426954	138.412	71.8455
426955	138.992	72.0103
426956	139.582	72.1732
426957	140.184	72.3341
426958	140.797	72.493
426959	141.421	72.6497
426960	142.057	72.8044
426961	142.704	72.9568
426962	143.363	73.1069
426963	144.034	73.2547
426964	144.717	73.4002
426965	145.412	73.5431
426966	146.119	73.6836
426967	146.839	73.8214
426968	147.57	73.9567
426969	148.315	74.0891
426970	149.072	74.2188
426971	149.841	74.3457
426972	150.623	74.4696
426973	151.418	74.5905
426974	152.225	74.7084
426975	153.044	74.8231
426976	153.876	74.9346
426977	154.72	75.0428
426978	155.577	75.1476
426979	156.446	75.249
426980	157.326	75.347
426981	158.218	75.4413
426982	159.122	75.532
426983	160.037	75.619
426984	160.963	75.7023
426985	161.9	75.7816
426986	162.847	75.8571
426987	163.804	75.9286
426988	164.771	75.9961
426989	165.747	76.0595
426990	166.731	76.1187
426991	167.724	76.1738
426992	168.724	76.2246
426993	169.732	76.271
426994	170.746	76.3132
426995	171.766	76.351
426996	172.791	76.3843
426997	173.822	76.4132
426998	174.856	76.4377
426999	175.894	76.4576
427000	176.934	76.473
427001	177.977	76.4838
427002	179.02	76.4902
427003	180.065	76.4919
427004	181.109	76.4891
427005	182.153	76.4818
427006	183.195	76.4699
427007	184.235	76.4534
427008	185.272	76.4325
427009	186.305	76.407
427010	187.334	76.3771
427011	188.358	76.3428
427012	189.377	76.304
427013	190.39	76.2608
427014	191.396	76.2134
427015	192.394	76.1616
427016	193.385	76.1056
427017	194.368	76.0454
427018	195.342	75.9811
427019	196.306	75.9127
427020	197.261	75.8403
427021	198.206	75.7639
427022	199.14	75.6837
427023	200.064	75.5996
427024	200.976	75.5117
427025	201.877	75.4202
427026	202.767	75.325
427027	203.645	75.2263
427028	204.51	75.1241
427029	205.364	75.0185
427030	206.206	74.9095
427031	207.035	74.7973
427032	207.851	74.6819
427033	208.655	74.5633
427034	209.447	74.4417
427035	210.226	74.3171
427036	210.993	74.1897
427037	211.747	74.0593
427038	212.488	73.9262
427039	213.217	73.7904
427040	213.934	73.652
427041	214.638	73.5109
427042	215.33	73.3674
427043	216.01	73.2214
427044	216.678	73.0731
427045	217.335	72.9224
427046	217.979	72.7695
427047	218.612	72.6144
427048	219.234	72.4572
427049	219.844	72.2979
427050	220.443	72.1365
427051	221.032	71.9732
427052	221.609	71.808
427053	222.176	71.6409
427054	222.732	71.472
427055	223.279	71.3013
427056	223.815	71.1289
427057	224.341	70.9548
427058	224.857	70.7791
427059	225.364	70.6018
427060	225.862	70.423
427061	226.35	70.2427
427062	226.829	70.061
427063	227.3	69.8778
427064	227.762	69.6932
427065	228.215	69.5073
427066	228.66	69.3201
427067	229.097	69.1317
427068	229.525	68.942
427069	229.946	68.7511
427070	230.359	68.559
427071	230.765	68.3658
427072	231.164	68.1715
427073	231.555	67.9761
427074	231.939	67.7796
427075	232.316	67.5821
427076	232.687	67.3837
427077	233.05	67.1842
427078	233.408	66.9838
427079	233.759	66.7825
427080	234.104	66.5803
427081	234.443	66.3773
427082	234.775	66.1733
427083	235.102	65.9686
427084	235.424	65.763
427085	235.74	65.5567
427086	236.05	65.3496
427087	236.355	65.1417
427088	236.655	64.9331
427089	236.949	64.7238
427090	237.239	64.5138
427091	237.524	64.3031
427092	237.804	64.0918
427093	238.079	63.8798
427094	238.35	63.6672
427095	238.616	63.454
427096	238.878	63.2401
427097	239.135	63.0257
427098	239.389	62.8107
427099	239.638	62.5952
427100	239.883	62.3791
427101	240.124	62.1625
427102	240.362	61.9454
427103	240.595	61.7277
427104	240.825	61.5096
427105	241.051	61.291
427106	241.274	61.0719
427107	241.493	60.8524
427108	241.708	60.6324
427109	241.921	60.4119
427110	242.13	60.191
427111	242.336	59.9697
427112	242.538	59.748
427113	242.738	59.5259
427114	242.935	59.3034
427115	243.128	59.0805
427116	243.319	58.8572
427117	243.507	58.6336
427118	243.692	58.4096
427119	243.874	58.1852
427120	244.054	57.9605
427121	244.23	57.7354
427122	244.405	57.5101
427123	244.577	57.2844
427124	244.746	57.0583
427125	244.913	56.832
427126	245.077	56.6054
427127	245.239	56.3784
427128	245.399	56.1512
427129	245.557	55.9237
427130	245.712	55.6958
427131	245.865	55.4678
427132	246.016	55.2394
427133	246.165	55.0108
427134	246.312	54.7819
427135	246.457	54.5528
427136	246.599	54.3234
427137	246.74	54.0938
427138	246.879	53.8639
427139	247.016	53.6338
427140	247.151	53.4035
427141	247.285	53.1729
427142	247.416	52.9421
427143	247.546	52.7111
427144	247.674	52.4799
427145	247.8	52.2485
427146	247.925	52.0169
427147	248.048	51.785
427148	248.169	51.553
427149	248.289	51.3208
427150	248.408	51.0883
427151	248.524	50.8557
427152	248.64	50.6229
427153	248.753	50.39
427154	248.866	50.1568
427155	248.976	49.9235
427156	249.086	49.69
427157	249.194	49.4563
427158	249.301	49.2225
427159	249.406	48.9885
427160	249.51	48.7543
427161	249.613	48.52
427162	249.714	48.2855
427163	249.814	48.0509
427164	249.913	47.8162
427165	250.011	47.5812
427166	250.107	47.3462
427167	250.202	47.111
427168	250.297	46.8756
427169	250.39	46.6401
427170	250.481	46.4045
427171	250.572	46.1688
427172	250.662	45.9329
427173	250.75	45.6969
427174	250.838	45.4608
427175	250.924	45.2245
427176	251.01	44.9881
427177	251.094	44.7516
427178	251.177	44.515
427179	251.26	44.2783
427180	251.341	44.0414
427181	251.422	43.8045
427182	251.501	43.5674
427183	251.58	43.3302
427184	251.657	43.093
427185	251.734	42.8556
427186	251.81	42.6181
427187	251.885	42.3805
427188	251.959	42.1428
427189	252.032	41.905
427190	252.104	41.6671
427191	252.176	41.4291
427192	252.247	41.191
427193	252.317	40.9528
427194	252.386	40.7145
427195	252.454	40.4762
427196	252.521	40.2377
427197	252.588	39.9992
427198	252.654	39.7606
427199	252.719	39.5219
427200	252.784	39.2831
427201	252.848	39.0442
427202	252.911	38.8052
427203	252.973	38.5662
427204	253.035	38.3271
427205	253.096	38.0879
427206	253.156	37.8486
427207	253.215	37.6093
427208	253.274	37.3699
427209	253.332	37.1304
427210	253.39	36.8908
427211	253.447	36.6512
427212	253.503	36.4115
427213	253.559	36.1717
427214	253.614	35.9319
427215	253.668	35.692
427216	253.722	35.452
427217	253.775	35.2119
427218	253.828	34.9718
427219	253.88	34.7317
427220	253.931	34.4914
427221	253.982	34.2512
427222	254.032	34.0108
427223	254.082	33.7704
427224	254.131	33.5299
427225	254.18	33.2894
427226	254.228	33.0488
427227	254.276	32.8082
427228	254.323	32.5675
427229	254.369	32.3267
427230	254.415	32.0859
427231	254.461	31.8451
427232	254.506	31.6041
427233	254.55	31.3632
427234	254.594	31.1222
427235	254.637	30.8811
427236	254.68	30.64
427237	254.723	30.3988
427238	254.765	30.1576
427239	254.807	29.9163
427240	254.848	29.675
427241	254.888	29.4337
427242	254.928	29.1923
427243	254.968	28.9508
427244	255.007	28.7094
427245	255.046	28.4678
427246	255.085	28.2263
427247	255.123	27.9846
427248	255.16	27.743
427249	255.197	27.5013
427250	255.234	27.2595
427251	255.27	27.0178
427252	255.306	26.7759
427253	255.341	26.5341
427254	255.376	26.2922
427255	255.411	26.0502
427256	255.445	25.8083
427257	255.479	25.5663
427258	255.512	25.3242
427259	255.545	25.0821
427260	255.578	24.84
427261	255.61	24.5978
427262	255.642	24.3557
427263	255.674	24.1134
427264	255.705	23.8712
427265	255.736	23.6289
427266	255.766	23.3866
427267	255.796	23.1442
427268	255.826	22.9018
427269	255.855	22.6594
427270	255.884	22.417
427271	255.913	22.1745
427272	255.941	21.932
427273	255.969	21.6894
427274	255.996	21.4469
427275	256.024	21.2043
427276	256.051	20.9617
427277	256.077	20.719
427278	256.103	20.4763
427279	256.129	20.2336
427280	256.155	19.9909
427281	256.18	19.7481
427282	256.205	19.5053
427283	256.23	19.2625
427284	256.254	19.0197
427285	256.278	18.7768
427286	256.301	18.5339
427287	256.325	18.291
427288	256.348	18.0481
427289	256.371	17.8051
427290	256.393	17.5622
427291	256.415	17.3192
427292	256.437	17.0761
427293	256.458	16.8331
427294	256.48	16.59
427295	256.501	16.3469
427296	256.521	16.1038
427297	256.541	15.8607
427298	256.561	15.6176
427299	256.581	15.3744
427300	256.601	15.1312
427301	256.62	14.888
427302	256.639	14.6448
427303	256.657	14.4015
427304	256.676	14.1583
427305	256.694	13.915
427306	256.711	13.6717
427307	256.729	13.4283
427308	256.746	13.185
427309	256.763	12.9417
427310	256.78	12.6983
427311	256.796	12.4549
427312	256.812	12.2115
427313	256.828	11.9681
427314	256.844	11.7247
427315	256.859	11.4812
427316	256.874	11.2378
427317	256.889	10.9943
427318	256.903	10.7508
427319	256.918	10.5073
427320	256.932	10.2638
427321	256.946	10.0202
427322	256.959	9.77669
427323	256.972	9.53313
427324	256.985	9.28956
427325	256.998	9.04598
427326	257.01	8.80238
427327	257.023	8.55877
427328	257.035	8.31516
427329	257.046	8.07153
427330	257.058	7.82789
427331	257.069	7.58423
427332	257.08	7.34057
427333	257.091	7.0969
427334	257.101	6.85322
427335	257.112	6.60952
427336	257.122	6.36582
427337	257.131	6.12211
427338	257.141	5.87839
427339	257.15	5.63466
427340	257.159	5.39092
427341	257.168	5.14717
427342	257.176	4.90342
427343	257.185	4.65966
427344	257.193	4.41588
427345	257.201	4.17211
427346	257.208	3.92832
427347	257.215	3.68453
427348	257.223	3.44073
427349	257.229	3.19693
427350	257.236	2.95311
427351	257.242	2.7093
427352	257.249	2.46547
427353	257.255	2.22164
427354	257.26	1.97781
427355	257.266	1.73397
427356	257.271	1.49013
427357	257.276	1.24628
427358	257.281	1.00242
427359	257.285	0.758565
427360	257.289	0.514703
427361	257.293	0.270837
427362	257.297	0.0269683
427363	257.301	-0.216904
427364	257.304	-0.460779
427365	257.307	-0.704658
427366	257.31	-0.948539
427367	257.313	-1.19242
427368	257.315	-1.43631
427369	257.317	-1.68019
427370	257.319	-1.92408
427371	257.321	-2.16797
427372	257.322	-2.41187
427373	257.323	-2.65576
427374	257.324	-2.89965
427375	257.325	-3.14355
427376	257.326	-3.38744
427377	257.326	-3.63134
427378	257.326	-3.87523
427379	257.326	-4.11913
427380	257.326	-4.36302
427381	257.325	-4.60692
427382	257.324	-4.85081
427383	257.323	-5.0947
427384	257.322	-5.33859
427385	257.32	-5.58248
427386	257.318	-5.82636
427387	257.316	-6.07025
427388	257.314	-6.31413
427389	257.311	-6.55801
427390	257.308	-6.80189
427391	257.305	-7.04576
427392	257.302	-7.28963
427393	257.299	-7.5335
427394	257.295	-7.77736
427395	257.291	-8.02122
427396	257.287	-8.26507
427397	257.282	-8.50893
427398	257.278	-8.75277
427399	257.273	-8.99661
427400	257.267	-9.24045
427401	257.262	-9.48428
427402	257.256	-9.7281
427403	257.25	-9.97192
427404	257.244	-10.2157
427405	257.238	-10.4595
427406	257.231	-10.7033
427407	257.224	-10.9471
427408	257.217	-11.1909
427409	257.21	-11.4347
427410	257.202	-11.6785
427411	257.194	-11.9222
427412	257.186	-12.166
427413	257.177	-12.4097
427414	257.169	-12.6535
427415	257.16	-12.8972
427416	257.151	-13.1409
427417	257.141	-13.3846
427418	257.131	-13.6284
427419	257.121	-13.872
427420	257.111	-14.1157
427421	257.101	-14.3594
427422	257.09	-14.6031
427423	257.079	-14.8467
427424	257.068	-15.0904
427425	257.056	-15.334
427426	257.044	-15.5776
427427	257.032	-15.8212
427428	257.02	-16.0648
427429	257.007	-16.3084
427430	256.994	-16.5519
427431	256.981	-16.7955
427432	256.967	-17.039
427433	256.954	-17.2826
427434	256.94	-17.5261
427435	256.925	-17.7696
427436	256.911	-18.0131
427437	256.896	-18.2565
427438	256.881	-18.5
427439	256.865	-18.7434
427440	256.849	-18.9868
427441	256.833	-19.2303
427442	256.817	-19.4736
427443	256.8	-19.717
427444	256.783	-19.9604
427445	256.766	-20.2037
427446	256.748	-20.447
427447	256.73	-20.6903
427448	256.712	-20.9336
427449	256.694	-21.1769
427450	256.675	-21.4201
427451	256.656	-21.6634
427452	256.636	-21.9066
427453	256.617	-22.1498
427454	256.597	-22.3929
427455	256.576	-22.6361
427456	256.555	-22.8792
427457	256.534	-23.1223
427458	256.513	-23.3654
427459	256.491	-23.6085
427460	256.469	-23.8515
427461	256.447	-24.0945
427462	256.424	-24.3375
427463	256.401	-24.5805
427464	256.378	-24.8234
427465	256.354	-25.0664
427466	256.33	-25.3092
427467	256.305	-25.5521
427468	256.28	-25.795
427469	256.255	-26.0378
427470	256.23	-26.2806
427471	256.204	-26.5233
427472	256.177	-26.7661
427473	256.151	-27.0088
427474	256.124	-27.2515
427475	256.096	-27.4941
427476	256.068	-27.7367
427477	256.04	-27.9793
427478	256.011	-28.2219
427479	255.982	-28.4644
427480	255.953	-28.7069
427481	255.923	-28.9494
427482	255.893	-29.1918
427483	255.862	-29.4342
427484	255.831	-29.6766
427485	255.8	-29.9189
427486	255.768	-30.1613
427487	255.736	-30.4035
427488	255.703	-30.6458
427489	255.67	-30.888
427490	255.636	-31.1301
427491	255.602	-31.3722
427492	255.568	-31.6143
427493	255.533	-31.8564
427494	255.497	-32.0984
427495	255.461	-32.3404
427496	255.425	-32.5823
427497	255.388	-32.8242
427498	255.351	-33.066
427499	255.313	-33.3078
427500	255.275	-33.5496
427501	255.236	-33.7913
427502	255.197	-34.033
427503	255.157	-34.2746
427504	255.117	-34.5162
427505	255.076	-34.7578
427506	255.035	-34.9993
427507	254.993	-35.2407
427508	254.95	-35.4821
427509	254.907	-35.7235
427510	254.864	-35.9648
427511	254.82	-36.206
427512	254.775	-36.4472
427513	254.73	-36.6884
427514	254.684	-36.9295
427515	254.638	-37.1705
427516	254.591	-37.4115
427517	254.544	-37.6525
427518	254.496	-37.8933
427519	254.447	-38.1342
427520	254.397	-38.3749
427521	254.347	-38.6156
427522	254.297	-38.8563
427523	254.246	-39.0969
427524	254.194	-39.3374
427525	254.141	-39.5779
427526	254.088	-39.8183
427527	254.034	-40.0586
427528	253.98	-40.2989
427529	253.924	-40.5391
427530	253.868	-40.7792
427531	253.812	-41.0193
427532	253.754	-41.2593
427533	253.696	-41.4992
427534	253.637	-41.739
427535	253.578	-41.9788
427536	253.517	-42.2185
427537	253.456	-42.4582
427538	253.394	-42.6977
427539	253.331	-42.9372
427540	253.268	-43.1766
427541	253.203	-43.4159
427542	253.138	-43.6551
427543	253.072	-43.8943
427544	253.005	-44.1334
427545	252.938	-44.3723
427546	252.869	-44.6112
427547	252.799	-44.85
427548	252.729	-45.0887
427549	252.658	-45.3274
427550	252.585	-45.5659
427551	252.512	-45.8043
427552	252.438	-46.0426
427553	252.363	-46.2809
427554	252.287	-46.519
427555	252.209	-46.757
427556	252.131	-46.995
427557	252.052	-47.2328
427558	251.972	-47.4705
427559	251.891	-47.7081
427560	251.808	-47.9456
427561	251.725	-48.183
427562	251.64	-48.4203
427563	251.554	-48.6574
427564	251.467	-48.8944
427565	251.379	-49.1313
427566	251.29	-49.3681
427567	251.199	-49.6048
427568	251.108	-49.8413
427569	251.014	-50.0777
427570	250.92	-50.3139
427571	250.825	-50.5501
427572	250.728	-50.7861
427573	250.629	-51.0219
427574	250.53	-51.2576
427575	250.429	-51.4932
427576	250.326	-51.7286
427577	250.222	-51.9638
427578	250.117	-52.1989
427579	250.01	-52.4339
427580	249.902	-52.6686
427581	249.792	-52.9033
427582	249.681	-53.1377
427583	249.568	-53.372
427584	249.453	-53.6061
427585	249.336	-53.84
427586	249.218	-54.0738
427587	249.099	-54.3073
427588	248.977	-54.5407
427589	248.854	-54.7739
427590	248.729	-55.0069
427591	248.602	-55.2397
427592	248.473	-55.4722
427593	248.342	-55.7046
427594	248.209	-55.9368
427595	248.074	-56.1687
427596	247.938	-56.4004
427597	247.799	-56.6319
427598	247.658	-56.8632
427599	247.515	-57.0942
427600	247.369	-57.325
427601	247.222	-57.5555
427602	247.072	-57.7858
427603	246.919	-58.0158
427604	246.765	-58.2456
427605	246.608	-58.4751
427606	246.448	-58.7043
427607	246.286	-58.9333
427608	246.121	-59.1619
427609	245.954	-59.3903
427610	245.784	-59.6183
427611	245.611	-59.8461
427612	245.435	-60.0735
427613	245.257	-60.3006
427614	245.075	-60.5274
427615	244.891	-60.7538
427616	244.703	-60.9799
427617	244.512	-61.2057
427618	244.319	-61.4311
427619	244.121	-61.6561
427620	243.921	-61.8807
427621	243.717	-62.105
427622	243.51	-62.3288
427623	243.298	-62.5523
427624	243.084	-62.7753
427625	242.865	-62.9979
427626	242.643	-63.22
427627	242.417	-63.4417
427628	242.187	-63.663
427629	241.952	-63.8837
427630	241.714	-64.104
427631	241.471	-64.3238
427632	241.224	-64.5431
427633	240.972	-64.7618
427634	240.716	-64.98
427635	240.455	-65.1977
427636	240.189	-65.4148
427637	239.919	-65.6313
427638	239.643	-65.8472
427639	239.362	-66.0625
427640	239.076	-66.2771
427641	238.784	-66.4911
427642	238.487	-66.7045
427643	238.184	-66.9171
427644	237.875	-67.1291
427645	237.56	-67.3403
427646	237.239	-67.5508
427647	236.912	-67.7605
427648	236.578	-67.9694
427649	236.238	-68.1776
427650	235.891	-68.3848
427651	235.537	-68.5913
427652	235.176	-68.7968
427653	234.808	-69.0014
427654	234.432	-69.2051
427655	234.049	-69.4078
427656	233.657	-69.6096
427657	233.258	-69.8103
427658	232.851	-70.0099
427659	232.435	-70.2085
427660	232.01	-70.406
427661	231.577	-70.6023
427662	231.134	-70.7974
427663	230.683	-70.9913
427664	230.221	-71.1839
427665	229.75	-71.3752
427666	229.269	-71.5652
427667	228.778	-71.7538
427668	228.277	-71.9409
427669	227.764	-72.1266
427670	227.241	-72.3108
427671	226.706	-72.4934
427672	226.161	-72.6743
427673	225.603	-72.8536
427674	225.033	-73.0312
427675	224.451	-73.207
427676	223.857	-73.381
427677	223.25	-73.5531
427678	222.63	-73.7232
427679	221.997	-73.8913
427680	221.35	-74.0574
504000	209.82	-63.8217
504001	209.381	-63.9452
504002	208.937	-64.0669
504003	208.489	-64.1869
504004	208.037	-64.3052
504005	207.58	-64.4218
504006	207.119	-64.5366
504007	206.654	-64.6496
504008	206.184	-64.7607
504009	205.71	-64.87
504010	205.232	-64.9775
504011	204.749	-65.083
504012	204.263	-65.1867
504013	203.772	-65.2884
504014	203.276	-65.3881
504015	202.777	-65.4858
504016	202.274	-65.5815
504017	201.766	-65.6752
504018	201.255	-65.7668
504019	200.739	-65.8563
504020	200.22	-65.9437
504021	199.696	-66.029
504022	199.169	-66.1121
504023	198.638	-66.1931
504024	198.104	-66.2718
504025	197.565	-66.3483
504026	197.023	-66.4226
504027	196.478	-66.4946
504028	195.929	-66.5643
504029	195.377	-66.6317
504030	194.822	-66.6967
504031	194.263	-66.7595
504032	193.702	-66.8198
504033	193.137	-66.8778
504034	192.57	-66.9334
504035	191.999	-66.9865
504036	191.426	-67.0372
504037	190.851	-67.0855
504038	190.273	-67.1313
504039	189.693	-67.1746
504040	189.11	-67.2154
504041	188.526	-67.2536
504042	187.939	-67.2894
504043	187.351	-67.3226
504044	186.761	-67.3533
504045	186.169	-67.3814
504046	185.576	-67.407
504047	184.982	-67.4299
504048	184.386	-67.4503
504049	183.789	-67.4681
504050	183.192	-67.4833
504051	182.593	-67.4959
504052	181.994	-67.5058
504053	181.395	-67.5132
504054	180.795	-67.518
504055	180.195	-67.5201
504056	179.595	-67.5196
504057	178.995	-67.5165
504058	178.396	-67.5108
504059	177.797	-67.5025
504060	177.198	-67.4916
504061	176.6	-67.478
504062	176.002	-67.4619
504063	175.406	-67.4431
504064	174.811	-67.4218
504065	174.217	-67.3979
504066	173.624	-67.3714
504067	173.033	-67.3423
504068	172.444	-67.3107
504069	171.856	-67.2766
504070	171.27	-67.2399
504071	170.687	-67.2007
504072	170.105	-67.159
504073	169.526	-67.1148
504074	168.948	-67.0681
504075	168.374	-67.0189
504076	167.802	-66.9673
504077	167.233	-66.9133
504078	166.666	-66.8568
504079	166.103	-66.798
504080	165.542	-66.7368
504081	164.985	-66.6732
504082	164.431	-66.6072
504083	163.88	-66.539
504084	163.332	-66.4684
504085	162.788	-66.3956
504086	162.248	-66.3205
504087	161.711	-66.2432
504088	161.177	-66.1636
504089	160.648	-66.0819
504090	160.122	-65.998
504091	159.6	-65.9119
504092	159.082	-65.8238
504093	158.568	-65.7335
504094	158.058	-65.6411
504095	157.552	-65.5467
504096	157.05	-65.4502
504097	156.552	-65.3518
504098	156.059	-65.2513
504099	155.569	-65.1489
504100	155.084	-65.0446
504101	154.603	-64.9383
504102	154.126	-64.8302
504103	153.654	-64.7202
504104	153.186	-64.6084
504105	152.722	-64.4947
504106	152.263	-64.3793
504107	151.808	-64.2621
504108	151.357	-64.1432
504109	150.91	-64.0225
504110	150.468	-63.9001
504111	150.031	-63.7761
504112	149.597	-63.6505
504113	149.168	-63.5232
504114	148.743	-63.3943
504115	148.323	-63.2638
504116	147.907	-63.1318
504117	147.495	-62.9983
504118	147.088	-62.8632
504119	146.684	-62.7267
504120	146.285	-62.5887
504121	145.891	-62.4492
504122	145.5	-62.3084
504123	145.114	-62.1661
504124	144.731	-62.0225
504125	144.353	-61.8775
504126	143.979	-61.7312
504127	143.609	-61.5836
504128	143.244	-61.4347
504129	142.882	-61.2845
504130	142.524	-61.133
504131	142.17	-60.9804
504132	141.82	-60.8265
504133	141.474	-60.6714
504134	141.132	-60.5152
504135	140.794	-60.3578
504136	140.459	-60.1992
504137	140.129	-60.0396
504138	139.802	-59.8788
504139	139.479	-59.717
504140	139.159	-59.5541
504141	138.843	-59.3901
504142	138.531	-59.2251
504143	138.222	-59.0591
504144	137.917	-58.8921
504145	137.615	-58.7241
504146	137.317	-58.5552
504147	137.022	-58.3853
504148	136.731	-58.2145
504149	136.443	-58.0427
504150	136.158	-57.87
504151	135.877	-57.6965
504152	135.599	-57.5221
504153	135.324	-57.3468
504154	135.052	-57.1707
504155	134.783	-56.9937
504156	134.518	-56.8159
504157	134.255	-56.6373
504158	133.996	-56.4579
504159	133.739	-56.2777
504160	133.486	-56.0968
504161	133.236	-55.9151
504162	132.988	-55.7327
504163	132.743	-55.5495
504164	132.501	-55.3656
504165	132.262	-55.181
504166	132.026	-54.9957
504167	131.792	-54.8097
504168	131.561	-54.6231
504169	131.333	-54.4357
504170	131.108	-54.2478
504171	130.885	-54.0592
504172	130.664	-53.8699
504173	130.446	-53.68
504174	130.231	-53.4895
504175	130.018	-53.2985
504176	129.808	-53.1068
504177	129.6	-52.9145
504178	129.394	-52.7217
504179	129.191	-52.5282
504180	128.99	-52.3343
504181	128.791	-52.1398
504182	128.595	-51.9447
504183	128.401	-51.7491
504184	128.209	-51.553
504185	128.019	-51.3564
504186	127.832	-51.1593
504187	127.646	-50.9617
504188	127.463	-50.7635
504189	127.282	-50.5649
504190	127.103	-50.3659
504191	126.926	-50.1663
504192	126.751	-49.9663
504193	126.578	-49.7659
504194	126.407	-49.5649
504195	126.237	-49.3636
504196	126.07	-49.1618
504197	125.905	-48.9596
504198	125.741	-48.757
504199	125.58	-48.5539
504200	125.42	-48.3505
504201	125.262	-48.1466
504202	125.106	-47.9424
504203	124.951	-47.7378
504204	124.798	-47.5327
504205	124.647	-47.3273
504206	124.498	-47.1216
504207	124.35	-46.9154
504208	124.204	-46.7089
504209	124.06	-46.5021
504210	123.917	-46.2949
504211	123.776	-46.0873
504212	123.636	-45.8794
504213	123.498	-45.6712
504214	123.362	-45.4626
504215	123.227	-45.2538
504216	123.093	-45.0446
504217	122.961	-44.835
504218	122.831	-44.6252
504219	122.702	-44.4151
504220	122.574	-44.2046
504221	122.448	-43.9939
504222	122.323	-43.7829
504223	122.2	-43.5715
504224	122.078	-43.3599
504225	121.957	-43.148
504226	121.837	-42.9359
504227	121.719	-42.7234
504228	121.603	-42.5107
504229	121.487	-42.2978
504230	121.373	-42.0845
504231	121.26	-41.871
504232	121.148	-41.6573
504233	121.038	-41.4433
504234	120.929	-41.2291
504235	120.821	-41.0146
504236	120.714	-40.7998
504237	120.608	-40.5849
504238	120.504	-40.3697
504239	120.4	-40.1543
504240	120.298	-39.9386
504241	120.197	-39.7227
504242	120.097	-39.5066
504243	119.998	-39.2903
504244	119.9	-39.0738
504245	119.804	-38.857
504246	119.708	-38.6401
504247	119.614	-38.4229
504248	119.52	-38.2056
504249	119.428	-37.988
504250	119.336	-37.7703
504251	119.246	-37.5523
504252	119.156	-37.3342
504253	119.068	-37.1159
504254	118.98	-36.8973
504255	118.894	-36.6786
504256	118.808	-36.4598
504257	118.724	-36.2407
504258	118.64	-36.0215
504259	118.557	-35.8021
504260	118.476	-35.5825
504261	118.395	-35.3627
504262	118.315	-35.1428
504263	118.236	-34.9227
504264	118.157	-34.7025
504265	118.08	-34.4821
504266	118.004	-34.2615
504267	117.928	-34.0408
504268	117.853	-33.82
504269	117.78	-33.5989
504270	117.706	-33.3778
504271	117.634	-33.1564
504272	117.563	-32.935
504273	117.492	-32.7134
504274	117.423	-32.4916
504275	117.354	-32.2698
504276	117.285	-32.0477
504277	117.218	-31.8256
504278	117.151	-31.6033
504279	117.085	-31.3809
504280	117.02	-31.1583
504281	116.956	-30.9356
504282	116.892	-30.7128
504283	116.83	-30.4899
504284	116.767	-30.2668
504285	116.706	-30.0436
504286	116.645	-29.8203
504287	116.585	-29.5969
504288	116.526	-29.3734
504289	116.468	-29.1498
504290	116.41	-28.926
504291	116.353	-28.7021
504292	116.296	-28.4781
504293	116.24	-28.2541
504294	116.185	-28.0299
504295	116.131	-27.8056
504296	116.077	-27.5812
504297	116.024	-27.3566
504298	115.971	-27.132
504299	115.919	-26.9073
504300	115.868	-26.6825
504301	115.818	-26.4576
504302	115.768	-26.2326
504303	115.718	-26.0075
504304	115.67	-25.7823
504305	115.622	-25.5571
504306	115.574	-25.3317
504307	115.527	-25.1062
504308	115.481	-24.8807
504309	115.435	-24.6551
504310	115.39	-24.4294
504311	115.346	-24.2036
504312	115.302	-23.9777
504313	115.259	-23.7517
504314	115.216	-23.5257
504315	115.174	-23.2996
504316	115.132	-23.0734
504317	115.091	-22.8471
504318	115.051	-22.6207
504319	115.011	-22.3943
504320	114.972	-22.1678
504321	114.933	-21.9412
504322	114.895	-21.7146
504323	114.857	-21.4879
504324	114.82	-21.2611
504325	114.783	-21.0343
504326	114.747	-20.8074
504327	114.711	-20.5804
504328	114.676	-20.3533
504329	114.642	-20.1262
504330	114.608	-19.8991
504331	114.574	-19.6718
504332	114.541	-19.4446
504333	114.509	-19.2172
504334	114.477	-18.9898
504335	114.445	-18.7623
504336	114.414	-18.5348
504337	114.384	-18.3073
504338	114.354	-18.0796
504339	114.325	-17.8519
504340	114.296	-17.6242
504341	114.267	-17.3964
504342	114.239	-17.1686
504343	114.211	-16.9407
504344	114.184	-16.7128
504345	114.158	-16.4848
504346	114.132	-16.2567
504347	114.106	-16.0287
504348	114.081	-15.8005
504349	114.056	-15.5724
504350	114.032	-15.3442
504351	114.008	-15.1159
504352	113.985	-14.8876
504353	113.962	-14.6593
504354	113.94	-14.4309
504355	113.918	-14.2025
504356	113.896	-13.974
504357	113.875	-13.7456
504358	113.854	-13.517
504359	113.834	-13.2885
504360	113.815	-13.0599
504361	113.795	-12.8312
504362	113.776	-12.6026
504363	113.758	-12.3739
504364	113.74	-12.1451
504365	113.723	-11.9164
504366	113.706	-11.6876
504367	113.689	-11.4588
504368	113.673	-11.2299
504369	113.657	-11.001
504370	113.641	-10.7721
504371	113.627	-10.5432
504372	113.612	-10.3143
504373	113.598	-10.0853
504374	113.584	-9.85626
504375	113.571	-9.62723
504376	113.558	-9.39818
504377	113.546	-9.16911
504378	113.534	-8.94001
504379	113.522	-8.71089
504380	113.511	-8.48176
504381	113.5	-8.2526
504382	113.49	-8.02343
504383	113.48	-7.79424
504384	113.471	-7.56503
504385	113.461	-7.33581
504386	113.453	-7.10657
504387	113.444	-6.87731
504388	113.437	-6.64805
504389	113.429	-6.41877
504390	113.422	-6.18947
504391	113.415	-5.96017
504392	113.409	-5.73085
504393	113.403	-5.50152
504394	113.398	-5.27219
504395	113.393	-5.04284
504396	113.388	-4.81349
504397	113.384	-4.58412
504398	113.38	-4.35476
504399	113.377	-4.12538
504400	113.374	-3.896
504401	113.371	-3.66661
504402	113.369	-3.43722
504403	113.367	-3.20783
504404	113.365	-2.97843
504405	113.364	-2.74904
504406	113.364	-2.51964
504407	113.363	-2.29024
504408	113.364	-2.06084
504409	113.364	-1.83144
504410	113.365	-1.60204
504411	113.366	-1.37264
504412	113.368	-1.14325
504413	113.37	-0.913857
504414	113.373	-0.684471
504415	113.376	-0.45509
504416	113.379	-0.225714
504417	113.383	0.00365638
504418	113.387	0.23302
504419	113.391	0.462375
504420	113.396	0.691723
504421	113.402	0.921061
504422	113.407	1.15039
504423	113.413	1.37971
504424	113.42	1.60902
504425	113.427	1.83831
504426	113.434	2.0676
504427	113.442	2.29687
504428	113.45	2.52612
504429	113.458	2.75537
504430	113.467	2.98459
504431	113.477	3.21381
504432	113.486	3.443
504433	113.496	3.67218
504434	113.507	3.90134
504435	113.518	4.13048
504436	113.529	4.3596
504437	113.541	4.5887
504438	113.553	4.81778
504439	113.566	5.04684
504440	113.579	5.27588
504441	113.592	5.50489
504442	113.606	5.73388
504443	113.62	5.96285
504444	113.634	6.19179
504445	113.649	6.42071
504446	113.665	6.64959
504447	113.681	6.87845
504448	113.697	7.10729
504449	113.713	7.33609
504450	113.73	7.56487
504451	113.748	7.79361
504452	113.766	8.02232
504453	113.784	8.251
504454	113.803	8.47965
504455	113.822	8.70827
504456	113.842	8.93685
504457	113.862	9.16539
504458	113.882	9.3939
504459	113.903	9.62238
504460	113.924	9.85081
504461	113.946	10.0792
504462	113.968	10.3076
504463	113.991	10.5359
504464	114.014	10.7642
504465	114.037	10.9924
504466	114.061	11.2206
504467	114.085	11.4488
504468	114.11	11.6769
504469	114.135	11.9049
504470	114.161	12.133
504471	114.187	12.3609
504472	114.214	12.5889
504473	114.241	12.8167
504474	114.268	13.0446
504475	114.296	13.2723
504476	114.325	13.5001
504477	114.354	13.7277
504478	114.383	13.9554
504479	114.413	14.1829
504480	114.443	14.4105
504481	114.474	14.6379
504482	114.505	14.8653
504483	114.536	15.0927
504484	114.569	15.32
504485	114.601	15.5472
504486	114.634	15.7744
504487	114.668	16.0015
