time [h]	Qevap [W]
0	196.94
1	215.04
2	208.52
3	219.75
4	222.83
5	4800.00
6	4800.00
7	3833.28
8	3580.61
9	3348.88
10	3222.47
11	2990.40
12	2541.44
13	2704.21
14	2723.31
15	2830.70
16	2854.03
17	2833.94
18	2639.65
19	2519.70
20	2865.07
21	2197.12
22	2296.42
23	178.44
24	179.45
25	182.89
26	169.97
27	177.42
28	178.84
29	4800.00
30	4335.15
31	3224.47
32	3023.34
33	2852.51
34	2741.34
35	2547.20
36	2064.17
37	1969.90
38	2014.43
39	2251.19
40	2340.87
41	2372.17
42	2234.15
43	2117.16
44	2489.38
45	2491.42
46	2427.63
47	143.27
48	156.17
49	160.83
50	147.99
51	154.39
52	155.77
53	4715.51
54	3809.30
55	2826.93
56	2624.06
57	2238.49
58	1998.97
59	1740.21
60	1318.21
61	1500.69
62	1625.60
63	1898.21
64	2153.41
65	2281.02
66	2213.78
67	2157.96
68	2563.82
69	1910.21
70	1947.55
71	155.80
72	174.98
73	182.66
74	171.71
75	177.71
76	175.13
77	4800.00
78	4163.91
79	3081.03
80	2832.60
81	2196.41
82	2124.41
83	1982.40
84	2029.80
85	2126.72
86	2129.55
87	2267.28
88	2312.79
89	2309.48
90	2149.92
91	2038.80
92	2408.35
93	2400.72
94	2337.58
95	146.45
96	153.57
97	159.06
98	146.73
99	154.62
100	156.14
101	4572.40
102	3647.45
103	2666.60
104	2534.88
105	2444.20
106	2366.53
107	2262.59
108	2144.33
109	2201.22
110	2180.34
111	2262.98
112	2256.67
113	2188.31
114	1999.03
115	1873.22
116	2253.92
117	1572.08
118	1548.05
119	123.19
120	150.80
121	152.29
122	134.58
123	143.83
124	142.12
125	4009.70
126	3362.86
127	2436.71
128	2242.67
129	1712.26
130	1298.35
131	1281.04
132	1248.09
133	1239.70
134	1287.06
135	1579.71
136	1945.30
137	1999.47
138	1994.16
139	1897.78
140	2302.06
141	1621.92
142	1633.50
143	151.10
144	145.83
145	153.56
146	146.66
147	156.36
148	156.46
149	4559.20
150	3691.36
151	2813.38
152	2526.57
153	1514.13
154	1229.99
155	1133.81
156	1161.98
157	1137.72
158	1198.59
159	1461.07
160	1746.54
161	1843.05
162	1797.64
163	1830.73
164	2270.55
165	1619.15
166	1654.59
167	140.53
168	157.42
169	164.75
170	156.35
171	168.70
172	171.59
173	4800.00
174	4032.60
175	3031.96
176	2895.03
177	2763.37
178	2627.30
179	2056.18
180	1304.83
181	1249.21
182	1208.37
183	1627.67
184	2124.89
185	2296.11
186	2237.42
187	2245.86
188	2674.96
189	2029.37
190	2096.97
191	171.48
192	175.97
193	181.81
194	171.01
195	178.70
196	179.33
197	4800.00
198	4224.73
199	3119.68
200	2853.41
201	2237.08
202	2162.90
203	1935.48
204	1477.43
205	1628.36
206	1778.63
207	2092.84
208	2297.69
209	2374.27
210	2249.66
211	2180.39
212	2612.99
213	1981.75
214	2059.18
215	164.46
216	185.39
217	190.78
218	179.18
219	190.74
220	192.94
221	4800.00
222	4542.73
223	3372.49
224	3164.45
225	2682.00
226	2163.82
227	2113.95
228	2282.79
229	2418.52
230	2381.35
231	2515.92
232	2606.43
233	2628.14
234	2483.62
235	2391.29
236	2765.32
237	2117.13
238	2181.97
239	178.66
240	179.43
241	185.49
242	175.76
243	185.58
244	185.95
245	4800.00
246	4444.83
247	3299.12
248	3115.46
249	2979.55
250	2845.97
251	2652.54
252	2487.99
253	2471.51
254	2267.81
255	2395.14
256	2641.62
257	2762.39
258	2649.88
259	2594.84
260	3026.44
261	2416.63
262	2512.29
263	194.23
264	217.41
265	225.38
266	216.02
267	225.00
268	234.92
269	4800.00
270	4800.00
271	3990.14
272	3699.55
273	3177.41
274	2893.78
275	2614.82
276	2257.73
277	1613.76
278	1387.81
279	1907.23
280	2600.93
281	2831.30
282	2718.48
283	2652.00
284	3038.85
285	2350.29
286	2408.95
287	192.02
288	208.49
289	215.29
290	203.81
291	215.45
292	217.26
293	4800.00
294	4800.00
295	4073.14
296	3645.91
297	2105.88
298	1699.43
299	1528.82
300	1421.54
301	1276.24
302	1164.80
303	1544.17
304	2354.24
305	2601.23
306	2638.11
307	2589.57
308	3016.53
309	2364.26
310	2437.84
311	211.11
312	218.23
313	225.91
314	219.35
315	237.03
316	316.73
317	4800.00
318	4800.00
319	4403.76
320	4002.48
321	2772.97
322	2081.04
323	1852.90
324	1634.04
325	1487.26
326	1312.78
327	1536.96
328	2198.11
329	2523.69
330	2620.19
331	2742.72
332	3107.08
333	2453.48
334	2548.18
335	213.43
336	225.27
337	231.37
338	218.98
339	234.41
340	296.36
341	4800.00
342	4800.00
343	4063.41
344	3589.26
345	2175.17
346	1874.58
347	1751.02
348	1580.44
349	1436.81
350	1229.61
351	1559.57
352	2218.58
353	2536.68
354	2502.57
355	2497.69
356	2907.64
357	2282.31
358	2370.68
359	199.02
360	209.15
361	208.41
362	190.89
363	200.48
364	201.23
365	4800.00
366	4693.67
367	3458.14
368	3284.30
369	3157.19
370	3083.14
371	2888.98
372	2681.32
373	2676.20
374	2600.38
375	2687.83
376	2731.53
377	2712.84
378	2503.73
379	2362.33
380	2729.46
381	2051.43
382	2042.98
383	167.11
384	169.71
385	173.69
386	162.15
387	172.72
388	171.25
389	4800.00
390	4039.79
391	2981.98
392	2789.42
393	2633.16
394	2473.64
395	1972.57
396	1695.71
397	1746.00
398	1818.91
399	2153.06
400	2275.35
401	2298.52
402	2144.65
403	2047.95
404	2434.91
405	1748.16
406	1744.30
407	148.00
408	160.48
409	166.27
410	152.79
411	161.77
412	164.69
413	4711.58
414	3865.32
415	2833.35
416	2609.18
417	2197.18
418	1934.08
419	1459.98
420	1266.06
421	1795.84
422	1774.13
423	1876.43
424	2196.49
425	2343.94
426	2241.32
427	2200.58
428	2621.34
429	1961.63
430	2004.11
431	169.07
432	183.05
433	189.26
434	176.76
435	185.64
436	185.47
437	4800.00
438	4372.37
439	3267.78
440	2943.68
441	2408.22
442	1830.16
443	1366.38
444	1226.99
445	1138.94
446	956.84
447	1207.59
448	1861.30
449	2219.66
450	2173.50
451	2159.48
452	2589.81
453	1975.63
454	2083.77
455	183.38
456	194.06
457	199.36
458	181.83
459	186.41
460	187.27
461	4800.00
462	4406.98
463	3250.31
464	2976.32
465	2383.26
466	2490.05
467	2335.33
468	1842.48
469	1986.10
470	1816.42
471	2091.93
472	2415.35
473	2435.33
474	2372.92
475	2221.16
476	2593.89
477	1948.98
478	1977.40
479	164.18
480	164.97
481	170.44
482	160.97
483	168.26
484	170.30
485	4800.00
486	4112.68
487	3102.79
488	2729.96
489	2025.52
490	1937.85
491	1726.63
492	1309.91
493	1094.94
494	1435.19
495	1803.29
496	2077.10
497	2171.66
498	2137.22
499	2133.83
500	2532.58
501	1920.38
502	1981.72
503	160.44
504	176.26
505	180.70
506	169.52
507	181.26
508	182.51
509	4800.00
510	4226.93
511	3130.88
512	3011.86
513	2899.83
514	2783.24
515	2615.41
516	2458.06
517	2487.34
518	2438.98
519	2382.96
520	2494.16
521	2565.22
522	2460.52
523	2378.01
524	2737.52
525	2063.47
526	2095.24
527	168.10
528	175.06
529	180.45
530	170.87
531	181.03
532	181.99
533	4800.00
534	4450.23
535	3398.16
536	3250.00
537	3007.18
538	2583.13
539	2230.47
540	1474.83
541	1330.33
542	1182.54
543	1553.09
544	2419.99
545	2813.80
546	2745.27
547	2716.73
548	3146.43
549	2567.97
550	2713.45
551	217.11
552	233.22
553	245.42
554	241.13
555	327.24
556	397.85
557	4800.00
558	4800.00
559	4425.60
560	3786.53
561	2593.91
562	2125.74
563	1888.59
564	1875.79
565	1597.99
566	1591.32
567	2067.02
568	2711.88
569	2996.66
570	2959.25
571	2924.21
572	3292.43
573	2674.79
574	2780.70
575	220.38
576	240.44
577	249.26
578	240.91
579	329.46
580	416.76
581	4800.00
582	4800.00
583	4800.00
584	3953.65
585	2595.09
586	2114.68
587	1961.72
588	1761.20
589	1579.46
590	1292.45
591	1498.67
592	2310.98
593	2747.92
594	2751.23
595	2808.02
596	3210.98
597	2624.37
598	2787.80
599	230.13
600	246.67
601	254.52
602	252.67
603	344.62
604	399.98
605	4800.00
606	4800.00
607	4471.39
608	4131.11
609	3870.05
610	3352.51
611	2988.98
612	2708.04
613	2625.27
614	2574.08
615	2843.41
616	3072.92
617	3084.00
618	2905.39
619	2796.80
620	3115.20
621	2431.64
622	2533.25
623	200.25
624	203.28
625	207.34
626	196.06
627	208.39
628	210.29
629	4800.00
630	4800.00
631	3799.65
632	3528.61
633	3125.73
634	3011.99
635	2807.65
636	2584.88
637	2609.39
638	2603.40
639	2731.75
640	2992.13
641	3034.22
642	2992.44
643	2852.67
644	3208.19
645	2569.10
646	2643.43
647	209.46
648	220.75
649	231.34
650	222.48
651	232.91
652	281.44
653	4800.00
654	4800.00
655	4288.14
656	3617.29
657	2567.64
658	2361.76
659	2393.28
660	2163.13
661	2239.00
662	2542.42
663	2653.09
664	2749.50
665	2745.82
666	2664.37
667	2649.46
668	2959.88
669	2251.23
670	2305.55
671	182.80
672	189.93
673	194.38
674	181.08
675	188.38
676	188.94
677	4800.00
678	4431.53
679	3335.13
680	3144.93
681	2962.10
682	2768.54
683	2238.96
684	2231.47
685	2303.72
686	2188.29
687	2098.00
688	2248.95
689	2269.97
690	2065.29
691	1964.54
692	2366.57
693	1698.97
694	1704.51
695	135.39
696	159.86
697	169.18
698	156.59
699	170.06
700	171.99
701	4771.87
702	3984.74
703	2931.31
704	2376.39
705	1625.63
706	1212.28
707	1062.18
708	964.89
709	1147.65
710	1228.15
711	1538.86
712	1928.20
713	2099.03
714	1995.38
715	1943.48
716	2309.20
717	1558.32
718	1441.76
719	133.51
720	130.20
721	134.15
722	122.91
723	131.42
724	131.39
725	3821.58
726	3160.27
727	2277.00
728	1958.23
729	1850.36
730	1426.78
731	1168.30
732	1295.86
733	1202.91
734	1398.85
735	1633.23
736	1813.80
737	1873.85
738	1730.88
739	1769.50
740	2303.79
741	1706.94
742	1764.68
743	152.61
744	161.06
745	166.29
746	160.84
747	172.39
748	174.14
749	4800.00
750	4025.10
751	3009.89
752	2379.12
753	1518.90
754	1332.62
755	1124.63
756	947.89
757	907.76
758	859.06
759	1239.72
760	1778.33
761	1978.23
762	1924.01
763	1894.15
764	2325.80
765	1695.15
766	1766.66
767	155.89
768	167.20
769	171.78
770	159.73
771	170.32
772	171.94
773	4792.56
774	3905.99
775	2851.05
776	2632.25
777	2451.68
778	2246.05
779	1666.54
780	1356.33
781	1405.64
782	1693.84
783	1846.35
784	2120.22
785	2223.69
786	2097.81
787	2018.96
788	2413.33
789	1739.14
790	1745.69
791	148.32
792	174.32
793	179.34
794	162.18
795	170.40
796	172.37
797	4780.45
798	4036.75
799	2997.62
800	2509.13
801	1863.77
802	1688.45
803	1779.57
804	1363.83
805	1020.03
806	866.55
807	1072.47
808	1890.54
809	2110.77
810	2123.38
811	2020.85
812	2402.79
813	1712.84
814	1722.03
815	160.78
816	167.01
817	174.16
818	160.24
819	169.57
820	171.28
821	4800.00
822	4139.38
823	3138.45
824	2876.01
825	2565.21
826	1996.93
827	1659.21
828	1671.86
829	1494.85
830	1355.90
831	1327.29
832	1853.39
833	2119.86
834	2164.83
835	2228.32
836	2650.61
837	2010.61
838	2116.76
839	181.02
840	189.44
841	196.82
842	187.34
843	198.32
844	202.82
845	4800.00
846	4800.00
847	3634.97
848	2657.60
849	1572.87
850	1340.49
851	1230.60
852	1056.88
853	971.95
854	805.31
855	921.34
856	1453.66
857	1979.55
858	2091.51
859	2113.93
860	2569.19
861	1954.51
862	2073.21
863	184.10
864	199.66
865	207.57
866	195.22
867	206.53
868	213.58
869	4800.00
870	4800.00
871	3778.29
872	2644.63
873	1487.27
874	1427.82
875	1392.23
876	1210.27
877	1078.74
878	845.60
879	904.07
880	1337.21
881	1765.27
882	1842.89
883	1987.54
884	2373.13
885	1820.91
886	1980.33
887	185.13
888	198.16
889	205.34
890	194.64
891	208.15
892	234.61
893	4800.00
894	4800.00
895	3785.84
896	2618.76
897	1513.45
898	1436.56
899	1390.47
900	1250.57
901	1108.46
902	853.98
903	902.09
904	1278.95
905	1666.58
906	1770.65
907	1966.28
908	2357.35
909	1795.43
910	1968.71
911	190.13
912	208.72
913	213.50
914	198.05
915	211.71
916	227.14
917	4800.00
918	4762.95
919	3477.75
920	2774.10
921	1868.12
922	1659.37
923	1533.95
924	1415.71
925	1337.91
926	1118.52
927	1310.06
928	1996.46
929	2450.81
930	2413.72
931	2372.65
932	2759.32
933	2124.32
934	2247.44
935	201.23
936	197.32
937	203.17
938	195.14
939	205.85
940	212.25
941	4800.00
942	4800.00
943	3661.59
944	3255.42
945	3069.32
946	2903.12
947	2630.88
948	2029.77
949	1865.60
950	1841.22
951	2118.05
952	2473.18
953	2555.26
954	2389.28
955	2304.99
956	2709.47
957	2059.10
958	2124.23
959	164.24
960	180.61
961	186.54
962	175.31
963	182.29
964	180.67
965	4800.00
966	4357.73
967	3262.91
968	2937.03
969	2542.00
970	2393.70
971	2184.21
972	1968.24
973	1922.72
974	1879.93
975	2011.34
976	2313.76
977	2360.36
978	2318.63
979	2172.17
980	2573.82
981	1838.81
982	1772.56
983	142.81
984	152.62
985	157.81
986	147.25
987	157.07
988	160.47
989	4771.71
990	3882.60
991	2944.13
992	2658.85
993	2383.49
994	2196.76
995	2010.96
996	1779.76
997	1922.08
998	1950.41
999	1942.62
1000	2079.20
1001	2111.62
1002	2053.21
1003	2046.05
1004	2442.66
1005	1766.11
1006	1782.25
1007	143.93
1008	169.12
1009	171.37
1010	154.45
1011	162.00
1012	160.75
1013	4622.66
1014	3793.69
1015	2736.75
1016	2427.23
1017	2226.39
1018	2074.50
1019	1864.15
1020	1639.72
1021	1624.86
1022	1548.07
1023	1508.20
1024	1747.80
1025	1968.28
1026	2001.58
1027	2026.05
1028	2452.11
1029	1800.48
1030	1807.03
1031	153.79
1032	169.08
1033	169.86
1034	150.65
1035	160.92
1036	161.54
1037	4505.10
1038	3806.60
1039	2765.50
1040	2206.06
1041	1838.32
1042	1613.30
1043	1360.21
1044	1188.40
1045	1192.69
1046	907.71
1047	1008.36
1048	1568.52
1049	1925.58
1050	1907.30
1051	1958.01
1052	2423.20
1053	1747.96
1054	1727.20
1055	159.90
1056	165.75
1057	172.98
1058	159.14
1059	168.24
1060	170.10
1061	4789.88
1062	4045.05
1063	2943.46
1064	2095.91
1065	1841.97
1066	1585.61
1067	1075.86
1068	834.67
1069	743.28
1070	610.66
1071	687.43
1072	1024.52
1073	1444.21
1074	1613.85
1075	1729.43
1076	2157.28
1077	1551.22
1078	1631.56
1079	160.46
1080	162.03
1081	170.33
1082	163.27
1083	174.33
1084	177.89
1085	4800.00
1086	4233.69
1087	3063.98
1088	1649.37
1089	1045.95
1090	912.49
1091	864.52
1092	756.05
1093	628.56
1094	487.49
1095	506.60
1096	617.21
1097	791.50
1098	936.24
1099	1127.18
1100	1587.80
1101	1052.50
1102	1126.66
1103	106.83
1104	138.78
1105	150.53
1106	144.32
1107	158.32
1108	163.30
1109	4568.61
1110	3885.80
1111	2748.68
1112	1440.36
1113	894.57
1114	920.54
1115	880.81
1116	707.28
1117	616.55
1118	487.46
1119	510.78
1120	626.56
1121	790.09
1122	871.28
1123	1036.27
1124	1440.18
1125	855.58
1126	876.00
1127	69.24
1128	130.53
1129	143.69
1130	130.30
1131	147.79
1132	153.17
1133	3707.78
1134	3338.30
1135	2310.20
1136	1752.55
1137	1345.19
1138	1332.18
1139	1218.31
1140	1322.18
1141	1396.53
1142	1343.07
1143	1469.70
1144	1837.58
1145	1937.34
1146	1935.19
1147	1907.10
1148	2299.38
1149	1622.49
1150	1665.64
1151	184.34
1152	163.67
1153	171.38
1154	166.24
1155	177.50
1156	181.79
1157	4800.00
1158	4107.72
1159	3058.72
1160	2716.04
1161	1962.50
1162	1535.16
1163	1336.27
1164	1237.39
1165	1558.53
1166	1699.67
1167	1686.76
1168	1859.89
1169	1933.04
1170	1892.78
1171	1884.21
1172	2278.37
1173	1623.81
1174	1655.37
1175	138.21
1176	163.79
1177	167.65
1178	152.43
1179	161.80
1180	161.76
1181	4552.85
1182	3737.67
1183	2645.69
1184	1684.47
1185	1237.07
1186	1783.87
1187	1819.53
1188	1670.50
1189	1749.94
1190	1754.93
1191	1912.86
1192	2028.83
1193	2163.27
1194	2069.85
1195	2040.41
1196	2450.30
1197	1808.20
1198	1863.64
1199	161.40
1200	170.09
1201	174.30
1202	157.51
1203	167.84
1204	171.20
1205	4800.00
1206	3951.18
1207	2838.69
1208	2186.10
1209	1792.49
1210	1561.80
1211	1325.98
1212	1170.75
1213	1180.91
1214	1165.46
1215	1684.38
1216	2014.77
1217	2152.69
1218	2041.03
1219	1949.52
1220	2327.38
1221	1637.49
1222	1650.11
1223	147.05
1224	162.66
1225	169.43
1226	154.22
1227	162.08
1228	163.70
1229	4668.63
1230	3855.44
1231	2750.83
1232	2208.45
1233	2237.91
1234	2150.80
1235	1953.51
1236	1767.12
1237	1791.15
1238	1735.28
1239	1882.78
1240	2048.80
1241	2147.32
1242	2029.51
1243	1954.73
1244	2372.15
1245	1716.25
1246	1758.11
1247	155.04
1248	155.09
1249	161.49
1250	151.87
1251	160.48
1252	161.52
1253	4800.00
1254	3944.76
1255	2786.46
1256	1804.33
1257	1184.51
1258	996.58
1259	945.90
1260	846.83
1261	1252.83
1262	1537.70
1263	1551.76
1264	1885.53
1265	2108.43
1266	2014.41
1267	2012.19
1268	2456.44
1269	1788.78
1270	1847.87
1271	155.54
1272	183.39
1273	188.76
1274	175.49
1275	186.37
1276	184.51
1277	4800.00
1278	4269.28
1279	3078.22
1280	2047.06
1281	1273.20
1282	1161.22
1283	1082.00
1284	999.59
1285	1048.21
1286	867.45
1287	978.49
1288	1442.63
1289	2010.05
1290	2124.44
1291	2167.28
1292	2620.95
1293	2010.89
1294	2117.51
1295	195.83
1296	211.37
1297	219.75
1298	204.85
1299	215.92
1300	219.08
1301	4800.00
1302	4800.00
1303	3678.43
1304	2983.38
1305	2327.44
1306	1668.67
1307	1307.12
1308	1162.23
1309	973.50
1310	730.22
1311	800.58
1312	1288.94
1313	1880.39
1314	2221.67
1315	2272.10
1316	2757.61
1317	2147.82
1318	2282.06
1319	210.38
1320	210.16
1321	216.28
1322	208.05
1323	218.43
1324	263.82
1325	4800.00
1326	4800.00
1327	3860.82
1328	3095.51
1329	2525.99
1330	2152.71
1331	1633.57
1332	1527.61
1333	1488.47
1334	1158.81
1335	1074.56
1336	1601.49
1337	2133.24
1338	2285.92
1339	2452.50
1340	2970.70
1341	2423.06
1342	2515.36
1343	196.80
1344	183.45
1345	175.75
1346	160.33
1347	166.94
1348	168.58
1349	4800.00
1350	4138.11
1351	3009.42
1352	2587.49
1353	1842.80
1354	1170.57
1355	922.67
1356	806.33
1357	964.34
1358	1066.92
1359	1086.38
1360	1625.55
1361	2045.50
1362	2049.09
1363	1980.63
1364	2425.67
1365	1803.40
1366	1828.80
1367	147.91
1368	162.79
1369	173.16
1370	162.68
1371	169.58
1372	170.15
1373	4800.00
1374	4080.48
1375	2841.84
1376	1767.38
1377	1039.53
1378	994.02
1379	908.02
1380	868.37
1381	908.28
1382	939.28
1383	1122.03
1384	1298.85
1385	1831.23
1386	1937.17
1387	1947.94
1388	2409.46
1389	1763.35
1390	1823.91
1391	157.09
1392	168.18
1393	174.88
1394	164.68
1395	171.28
1396	170.59
1397	4800.00
1398	3965.00
1399	2847.32
1400	2501.53
1401	2269.96
1402	2098.66
1403	1865.47
1404	1656.77
1405	1655.36
1406	1593.50
1407	1723.47
1408	1890.14
1409	1983.05
1410	1863.85
1411	1764.82
1412	2186.12
1413	1567.18
1414	1593.70
1415	126.47
1416	141.56
1417	146.56
1418	135.15
1419	143.37
1420	144.72
1421	4280.83
1422	3450.95
1423	2452.18
1424	2109.68
1425	1911.35
1426	1783.69
1427	1609.73
1428	1428.45
1429	1433.51
1430	1398.01
1431	1268.96
1432	1502.63
1433	1774.45
1434	1693.11
1435	1626.18
1436	2103.09
1437	1466.94
1438	1487.52
1439	123.57
1440	147.28
1441	155.32
1442	143.58
1443	156.00
1444	160.46
1445	4633.56
1446	3720.35
1447	2265.99
1448	1298.70
1449	959.63
1450	883.88
1451	732.76
1452	590.29
1453	571.50
1454	511.74
1455	618.21
1456	1045.78
1457	1572.08
1458	1706.53
1459	1764.53
1460	2233.43
1461	1607.58
1462	1665.94
1463	151.43
1464	160.08
1465	165.07
1466	153.14
1467	162.15
1468	160.30
1469	4589.73
1470	3757.75
1471	2612.54
1472	1855.30
1473	1197.93
1474	947.74
1475	887.65
1476	713.53
1477	515.10
1478	431.94
1479	517.15
1480	1035.72
1481	1533.74
1482	1732.96
1483	1706.52
1484	2209.12
1485	1627.02
1486	1706.60
1487	152.84
1488	176.01
1489	183.99
1490	172.87
1491	185.12
1492	189.29
1493	4800.00
1494	4413.87
1495	2991.75
1496	2247.75
1497	1613.49
1498	1003.80
1499	834.33
1500	862.59
1501	955.10
1502	897.23
1503	706.75
1504	933.82
1505	1510.09
1506	1782.87
1507	1931.88
1508	2431.29
1509	1831.84
1510	1928.20
1511	174.49
1512	181.73
1513	188.92
1514	180.60
1515	192.94
1516	196.00
1517	4800.00
1518	4615.50
1519	2934.49
1520	2329.18
1521	1863.96
1522	1593.68
1523	1348.84
1524	1161.96
1525	1122.16
1526	1072.99
1527	1576.05
1528	2006.18
1529	2325.20
1530	2347.89
1531	2334.40
1532	2708.81
1533	2025.32
1534	2064.16
1535	173.45
1536	174.80
1537	178.16
1538	167.77
1539	174.76
1540	175.63
1541	4800.00
1542	4146.24
1543	2959.81
1544	2542.61
1545	1816.47
1546	1389.53
1547	945.61
1548	676.81
1549	659.07
1550	571.46
1551	709.08
1552	1134.71
1553	1652.88
1554	1760.42
1555	1754.14
1556	2275.06
1557	1702.66
1558	1819.56
1559	152.08
1560	173.75
1561	181.28
1562	170.20
1563	176.37
1564	177.75
1565	4800.00
1566	4270.16
1567	2652.59
1568	2007.70
1569	1185.51
1570	779.75
1571	743.40
1572	648.05
1573	577.73
1574	497.88
1575	571.10
1576	770.72
1577	1192.52
1578	1378.70
1579	1600.64
1580	2042.22
1581	1480.21
1582	1561.36
1583	137.37
1584	150.91
1585	159.36
1586	152.38
1587	165.16
1588	170.27
1589	4800.00
1590	4129.31
1591	2137.73
1592	1035.94
1593	693.85
1594	714.00
1595	735.33
1596	660.62
1597	621.40
1598	542.32
1599	605.07
1600	756.66
1601	1101.21
1602	1260.26
1603	1423.51
1604	1843.23
1605	1266.46
1606	1330.99
1607	132.03
1608	144.97
1609	157.59
1610	153.14
1611	165.25
1612	170.95
1613	4724.68
1614	3989.62
1615	1994.74
1616	986.49
1617	666.30
1618	743.08
1619	807.69
1620	675.65
1621	576.90
1622	450.63
1623	466.59
1624	578.59
1625	774.15
1626	971.16
1627	1191.29
1628	1644.46
1629	1098.00
1630	1140.65
1631	108.55
1632	139.81
1633	150.34
1634	147.24
1635	162.69
1636	166.68
1637	4369.35
1638	3784.83
1639	1886.36
1640	1178.30
1641	749.71
1642	916.16
1643	888.78
1644	817.17
1645	541.24
1646	391.73
1647	468.96
1648	889.06
1649	1199.05
1650	1329.39
1651	1399.20
1652	1708.27
1653	1082.58
1654	1105.40
1655	117.45
1656	131.85
1657	136.76
1658	124.02
1659	132.19
1660	135.92
1661	3747.04
1662	3133.53
1663	2158.04
1664	1734.99
1665	1050.28
1666	590.45
1667	574.83
1668	447.12
1669	414.33
1670	331.36
1671	313.69
1672	396.26
1673	592.77
1674	799.88
1675	1038.76
1676	1472.93
1677	908.78
1678	935.73
1679	86.82
1680	121.57
1681	135.00
1682	123.98
1683	133.58
1684	136.73
1685	3792.29
1686	3138.37
1687	1843.81
1688	1235.38
1689	785.40
1690	742.21
1691	470.64
1692	353.71
1693	359.68
1694	260.79
1695	307.52
1696	445.87
1697	607.62
1698	620.85
1699	853.00
1700	1294.04
1701	724.94
1702	761.24
1703	60.14
1704	47.11
1705	69.86
1706	74.55
1707	93.18
1708	103.10
1709	3368.74
1710	2898.36
1711	1346.24
1712	564.45
1713	303.36
1714	293.22
1715	276.93
1716	232.77
1717	259.89
1718	185.08
1719	218.96
1720	314.01
1721	482.24
1722	479.72
1723	656.72
1724	1144.87
1725	593.83
1726	639.32
1727	49.17
1728	60.42
1729	71.48
1730	75.22
1731	91.23
1732	95.91
1733	2943.21
1734	2763.75
1735	1245.88
1736	555.88
1737	403.61
1738	425.86
1739	364.26
1740	279.73
1741	318.44
1742	217.50
1743	241.29
1744	329.55
1745	506.52
1746	506.32
1747	653.97
1748	1066.14
1749	518.89
1750	547.14
1751	64.45
1752	49.67
1753	46.37
1754	31.13
1755	49.84
1756	60.37
1757	2517.03
1758	2343.52
1759	1307.30
1760	892.38
1761	639.88
1762	556.60
1763	376.41
1764	258.80
1765	278.27
1766	201.08
1767	228.53
1768	290.09
1769	449.27
1770	456.88
1771	573.45
1772	946.98
1773	500.37
1774	551.56
1775	52.99
1776	57.73
1777	53.88
1778	34.64
1779	41.21
1780	55.56
1781	2475.08
1782	2353.94
1783	1012.50
1784	558.02
1785	311.46
1786	354.10
1787	334.84
1788	261.72
1789	304.06
1790	217.48
1791	265.73
1792	369.96
1793	506.99
1794	543.50
1795	723.73
1796	1147.84
1797	568.55
1798	570.36
1799	61.58
1800	62.21
1801	58.06
1802	42.76
1803	62.16
1804	68.12
1805	2218.35
1806	2215.63
1807	1309.78
1808	1068.40
1809	840.24
1810	818.03
1811	708.94
1812	624.94
1813	580.40
1814	494.23
1815	535.10
1816	669.19
1817	866.48
1818	954.52
1819	1006.28
1820	1364.29
1821	744.51
1822	718.98
1823	69.70
1824	80.24
1825	89.14
1826	82.93
1827	97.13
1828	101.75
1829	2746.79
1830	2469.52
1831	1299.68
1832	1051.59
1833	628.84
1834	734.95
1835	693.19
1836	532.66
1837	354.96
1838	238.65
1839	268.51
1840	336.99
1841	504.57
1842	653.89
1843	864.34
1844	1310.51
1845	694.42
1846	698.79
1847	52.99
1848	74.44
1849	98.45
1850	97.38
1851	111.64
1852	118.69
1853	3447.04
1854	2883.80
1855	1083.84
1856	458.61
1857	320.83
1858	348.66
1859	327.06
1860	257.42
1861	312.55
1862	224.24
1863	257.04
1864	362.73
1865	527.05
1866	540.66
1867	696.12
1868	1155.67
1869	614.81
1870	643.64
1871	60.14
1872	55.50
1873	53.82
1874	61.14
1875	84.83
1876	98.31
1877	3202.84
1878	2838.51
1879	1396.36
1880	685.74
1881	375.37
1882	354.92
1883	359.20
1884	291.94
1885	319.50
1886	228.17
1887	263.00
1888	356.83
1889	525.03
1890	542.97
1891	781.73
1892	1247.21
1893	668.49
1894	708.42
1895	59.19
1896	54.77
1897	82.24
1898	85.08
1899	103.43
1900	111.53
1901	3274.66
1902	2832.66
1903	1326.48
1904	532.45
1905	312.43
1906	324.19
1907	303.70
1908	241.42
1909	291.95
1910	217.90
1911	301.39
1912	456.66
1913	612.85
1914	644.00
1915	797.29
1916	1219.55
1917	616.22
1918	620.20
1919	55.85
1920	61.51
1921	79.57
1922	71.70
1923	81.78
1924	84.30
1925	2248.89
1926	2134.40
1927	1223.57
1928	969.01
1929	839.67
1930	763.75
1931	473.71
1932	303.58
1933	326.53
1934	250.76
1935	304.29
1936	528.36
1937	780.76
1938	796.08
1939	922.16
1940	1292.37
1941	655.72
1942	624.50
1943	56.80
1944	73.05
1945	89.00
1946	78.10
1947	88.45
1948	93.97
1949	2526.82
1950	2320.16
1951	991.78
1952	498.50
1953	307.56
1954	365.07
1955	345.23
1956	270.07
1957	318.77
1958	232.02
1959	278.14
1960	387.04
1961	559.64
1962	638.59
1963	862.93
1964	1289.11
1965	707.36
1966	733.48
1967	63.49
1968	73.39
1969	93.09
1970	86.65
1971	101.94
1972	106.48
1973	3014.54
1974	2508.11
1975	934.20
1976	450.85
1977	321.31
1978	342.63
1979	321.86
1980	251.57
1981	292.27
1982	210.59
1983	250.01
1984	319.26
1985	477.82
1986	685.23
1987	868.21
1988	1299.47
1989	721.22
1990	750.81
1991	59.19
1992	62.32
1993	83.88
1994	81.23
1995	95.13
1996	102.85
1997	2925.01
1998	2511.33
1999	1315.33
2000	639.61
2001	605.98
2002	416.41
2003	383.96
2004	345.28
2005	477.34
2006	410.66
2007	329.77
2008	484.62
2009	693.57
2010	897.54
2011	1150.77
2012	1542.05
2013	957.25
2014	966.73
2015	96.06
2016	129.16
2017	139.13
2018	129.87
2019	142.13
2020	144.33
2021	3722.59
2022	2941.68
2023	1260.83
2024	576.32
2025	389.89
2026	391.50
2027	367.99
2028	321.94
2029	368.53
2030	276.76
2031	344.83
2032	531.01
2033	757.20
2034	890.50
2035	1107.65
2036	1556.42
2037	976.52
2038	1006.90
2039	103.45
2040	133.80
2041	146.05
2042	136.81
2043	150.70
2044	156.64
2045	4138.47
2046	3191.48
2047	1281.71
2048	636.20
2049	453.77
2050	444.50
2051	430.98
2052	405.04
2053	474.50
2054	403.11
2055	454.04
2056	666.79
2057	878.22
2058	1086.87
2059	1348.86
2060	1734.88
2061	1132.40
2062	1165.26
2063	132.92
2064	147.93
2065	157.04
2066	149.32
2067	162.77
2068	165.11
2069	4381.16
2070	3368.80
2071	1387.69
2072	689.42
2073	493.89
2074	770.38
2075	842.85
2076	717.89
2077	719.33
2078	605.11
2079	571.53
2080	708.12
2081	957.32
2082	1212.01
2083	1518.36
2084	1937.83
2085	1333.84
2086	1417.95
2087	142.01
2088	139.88
2089	142.54
2090	130.91
2091	138.44
2092	140.79
2093	4105.98
2094	3092.35
2095	1495.41
2096	1064.21
2097	838.57
2098	750.58
2099	650.60
2100	499.16
2101	418.74
2102	374.52
2103	496.67
2104	724.20
2105	1071.88
2106	1298.66
2107	1507.43
2108	1880.42
2109	1247.35
2110	1309.42
2111	120.35
2112	142.48
2113	144.75
2114	130.58
2115	137.94
2116	138.82
2117	4103.97
2118	3226.86
2119	1757.44
2120	1516.17
2121	1381.39
2122	1269.54
2123	1019.94
2124	493.59
2125	425.77
2126	289.96
2127	304.44
2128	446.62
2129	726.01
2130	871.29
2131	1085.50
2132	1484.09
2133	836.87
2134	872.14
2135	56.80
2136	77.11
2137	98.62
2138	97.10
2139	110.83
2140	117.33
2141	3811.96
2142	2738.30
2143	843.18
2144	370.17
2145	274.35
2146	318.79
2147	301.11
2148	235.35
2149	273.42
2150	186.89
2151	204.20
2152	229.08
2153	306.24
2154	360.10
2155	463.81
2156	780.49
2157	337.51
2158	423.15
2159	55.37
2160	40.72
2161	38.01
2162	24.43
2163	29.10
2164	45.67
2165	2627.62
2166	2058.19
2167	602.69
2168	268.13
2169	196.90
2170	249.79
2171	236.21
2172	184.63
2173	214.49
2174	146.61
2175	160.19
2176	176.48
2177	198.19
2178	236.84
2179	321.96
2180	570.72
2181	202.90
2182	222.34
2183	43.45
2184	56.39
2185	52.64
2186	33.83
2187	37.60
2188	33.83
2189	2194.35
2190	1970.30
2191	557.91
2192	291.78
2193	259.93
2194	345.86
2195	327.06
2196	255.63
2197	296.99
2198	203.00
2199	221.81
2200	244.35
2201	274.42
2202	286.56
2203	386.80
2204	532.29
2205	215.26
2206	204.74
2207	60.14
2208	59.52
2209	55.55
2210	35.71
2211	39.68
2212	35.71
2213	1930.11
2214	1871.77
2215	487.71
2216	262.75
2217	273.80
2218	365.07
2219	345.23
2220	269.83
2221	313.49
2222	214.28
2223	234.12
2224	269.68
2225	431.23
2226	564.55
2227	758.63
2228	1176.02
2229	596.22
2230	616.11
2231	63.49
2232	64.00
2233	61.83
2234	60.80
2235	79.77
2236	90.51
2237	2736.59
2238	2312.28
2239	830.65
2240	636.93
2241	575.64
2242	576.62
2243	515.78
2244	435.57
2245	508.17
2246	358.49
2247	482.49
2248	661.08
2249	876.44
2250	1027.61
2251	1212.52
2252	1592.67
2253	953.40
2254	954.75
2255	95.95
2256	103.98
2257	117.23
2258	112.46
2259	121.15
2260	124.28
2261	3242.78
2262	2840.06
2263	1859.40
2264	1603.58
2265	1456.13
2266	1327.19
2267	1173.24
2268	987.47
2269	941.21
2270	848.38
2271	871.89
2272	992.76
2273	1097.94
2274	1118.39
2275	1244.73
2276	1568.47
2277	888.55
2278	848.60
2279	84.05
2280	124.51
2281	137.40
2282	132.44
2283	149.04
2284	153.21
2285	3948.36
2286	3013.63
2287	1535.73
2288	558.17
2289	365.72
2290	386.67
2291	360.81
2292	299.67
2293	363.94
2294	281.04
2295	365.00
2296	541.09
2297	753.39
2298	981.28
2299	1236.19
2300	1609.68
2301	999.00
2302	1036.94
2303	131.84
2304	142.82
2305	152.11
2306	146.33
2307	160.68
2308	169.12
2309	4441.07
2310	3073.31
2311	1069.28
2312	530.96
2313	404.63
2314	404.03
2315	339.12
2316	261.72
2317	311.76
2318	222.46
2319	257.26
2320	308.90
2321	451.07
2322	587.06
2323	728.71
2324	1228.65
2325	719.13
2326	754.93
2327	61.58
2328	54.60
2329	51.90
2330	52.13
2331	72.02
2332	81.06
2333	2802.08
2334	2211.44
2335	680.81
2336	296.94
2337	251.23
2338	334.88
2339	316.68
2340	247.51
2341	287.56
2342	196.56
2343	214.76
2344	236.60
2345	293.80
2346	355.35
2347	494.00
2348	1008.41
2349	519.01
2350	561.64
2351	58.24
2352	64.90
2353	60.56
2354	43.37
2355	68.54
2356	79.53
2357	2592.60
2358	2138.94
2359	621.26
2360	321.54
2361	298.82
2362	398.01
2363	376.38
2364	294.19
2365	341.77
2366	241.40
2367	294.84
2368	366.45
2369	536.55
2370	702.74
2371	926.64
2372	1339.52
2373	732.42
2374	752.08
2375	69.22
2376	67.71
2377	91.54
2378	87.50
2379	101.71
2380	107.73
2381	2907.75
2382	2507.33
2383	1481.14
2384	1197.52
2385	1048.69
2386	992.38
2387	872.06
2388	746.94
2389	766.10
2390	708.91
2391	765.60
2392	764.77
2393	995.04
2394	1131.29
2395	1322.05
2396	1673.66
2397	1044.85
2398	1108.28
2399	126.00
2400	150.03
2401	159.14
2402	147.27
2403	157.60
2404	159.71
2405	4226.42
2406	3288.09
2407	1655.05
2408	1033.83
2409	771.14
2410	736.65
2411	620.79
2412	397.89
2413	407.41
2414	318.78
2415	435.04
2416	587.84
2417	831.48
2418	1022.33
2419	1277.98
2420	1676.64
2421	1037.69
2422	1067.85
2423	105.77
2424	113.74
2425	122.93
2426	116.02
2427	131.02
2428	138.89
2429	3994.64
2430	3133.98
2431	2019.44
2432	1653.69
2433	1468.87
2434	1298.01
2435	1087.78
2436	924.67
2437	924.40
2438	872.91
2439	883.00
2440	821.07
2441	1154.79
2442	1406.70
2443	1444.61
2444	1876.43
2445	1207.40
2446	1236.83
2447	111.65
2448	137.58
2449	147.78
2450	143.02
2451	152.95
2452	152.05
2453	4427.14
2454	3418.98
2455	2179.85
2456	1735.59
2457	1481.88
2458	1305.94
2459	1101.84
2460	960.49
2461	974.88
2462	908.14
2463	1051.03
2464	1284.36
2465	1558.85
2466	1602.56
2467	1542.67
2468	1948.89
2469	1247.38
2470	1222.76
2471	104.25
2472	134.71
2473	139.81
2474	124.70
2475	136.08
2476	139.16
2477	3973.91
2478	2930.83
2479	1538.89
2480	1377.97
2481	964.02
2482	552.41
2483	459.52
2484	366.65
2485	421.50
2486	351.51
2487	400.00
2488	429.23
2489	630.42
2490	902.91
2491	1121.55
2492	1587.06
2493	1049.73
2494	1118.59
2495	83.73
2496	103.73
2497	119.55
2498	116.06
2499	130.89
2500	140.64
2501	4311.75
2502	2842.07
2503	1300.69
2504	1264.78
2505	630.40
2506	421.74
2507	372.21
2508	292.71
2509	321.91
2510	316.82
2511	356.86
2512	467.89
2513	692.48
2514	867.47
2515	1060.26
2516	1409.68
2517	797.71
2518	827.44
2519	58.59
2520	92.18
2521	101.56
2522	90.12
2523	99.57
2524	100.39
2525	2924.60
2526	2400.11
2527	1375.85
2528	1042.96
2529	878.64
2530	797.25
2531	669.29
2532	539.72
2533	557.04
2534	535.00
2535	652.06
2536	893.67
2537	1140.87
2538	1159.41
2539	1174.97
2540	1636.23
2541	1031.53
2542	1104.01
2543	91.99
2544	112.13
2545	116.86
2546	106.45
2547	116.26
2548	117.19
2549	3397.53
2550	2657.51
2551	1489.93
2552	663.23
2553	654.78
2554	443.24
2555	372.94
2556	304.93
2557	340.16
2558	258.22
2559	320.74
2560	426.68
2561	607.16
2562	753.89
2563	994.47
2564	1438.46
2565	905.13
2566	1029.67
2567	75.05
2568	104.51
2569	118.04
2570	110.30
2571	119.95
2572	122.35
2573	3712.11
2574	2312.76
2575	583.87
2576	274.63
2577	236.75
2578	315.66
2579	298.51
2580	233.32
2581	284.20
2582	245.09
2583	301.76
2584	403.39
2585	591.84
2586	686.21
2587	845.25
2588	1300.97
2589	717.89
2590	741.30
2591	64.70
2592	103.91
2593	111.54
2594	101.22
2595	114.90
2596	118.72
2597	3262.37
2598	2364.01
2599	1021.86
2600	830.99
2601	420.68
2602	409.98
2603	384.65
2604	355.89
2605	423.27
2606	338.46
2607	380.51
2608	511.07
2609	695.76
2610	783.94
2611	973.56
2612	1356.43
2613	777.14
2614	834.28
2615	72.72
2616	101.74
2617	116.79
2618	108.63
2619	121.26
2620	127.69
2621	3445.75
2622	1927.47
2623	533.20
2624	285.34
2625	275.87
2626	367.81
2627	347.83
2628	271.87
2629	315.85
2630	215.90
2631	235.88
2632	259.88
2633	291.86
2634	320.10
2635	430.22
2636	754.87
2637	261.89
2638	280.55
2639	63.97
2640	54.60
2641	50.96
2642	32.76
2643	36.40
2644	40.93
2645	1853.27
2646	1601.82
2647	400.19
2648	251.90
2649	253.02
2650	334.88
2651	316.68
2652	247.51
2653	287.56
2654	196.56
2655	214.76
2656	236.60
2657	268.44
2658	319.26
2659	406.89
2660	720.17
2661	243.21
2662	255.12
2663	58.24
2664	54.15
2665	50.54
2666	32.49
2667	36.11
2668	32.49
2669	1372.62
2670	1605.69
2671	714.19
2672	291.08
2673	249.80
2674	332.14
2675	314.08
2676	245.49
2677	285.20
2678	194.95
2679	213.00
2680	251.85
2681	327.86
2682	375.09
2683	481.11
2684	822.29
2685	335.57
2686	344.43
2687	57.77
2688	58.18
2689	54.30
2690	34.91
2691	38.79
2692	34.91
2693	1728.71
2694	1796.36
2695	878.32
2696	647.58
2697	550.74
2698	543.27
2699	478.69
2700	382.67
2701	362.10
2702	239.63
2703	267.34
2704	318.85
2705	428.51
2706	525.62
2707	709.32
2708	1160.52
2709	580.48
2710	598.63
2711	62.05
2712	55.50
2713	51.80
2714	50.01
2715	71.06
2716	78.87
2717	2889.55
2718	2446.82
2719	1367.11
2720	913.39
2721	311.59
2722	340.37
2723	321.86
2724	251.57
2725	292.27
2726	199.78
2727	218.28
2728	240.47
2729	287.11
2730	351.80
2731	441.84
2732	655.94
2733	259.22
2734	250.70
2735	59.19
2736	47.89
2737	44.69
2738	28.73
2739	31.92
2740	28.73
2741	1552.72
2742	1111.15
2743	278.64
2744	194.74
2745	220.27
2746	293.71
2747	277.74
2748	217.09
2749	252.20
2750	172.40
2751	188.35
2752	207.51
2753	233.05
2754	242.62
2755	296.89
2756	408.89
2757	111.73
2758	79.81
2759	51.07
2760	52.81
2761	49.29
2762	31.68
2763	35.20
2764	31.68
2765	242.55
2766	834.02
2767	274.61
2768	214.76
2769	242.92
2770	323.89
2771	306.29
2772	239.41
2773	278.13
2774	190.11
2775	207.72
2776	228.84
2777	257.01
2778	267.57
2779	327.42
2780	480.21
2781	123.23
2782	88.02
2783	56.32
2784	50.12
2785	46.79
2786	30.08
2787	33.41
2788	30.08
2789	251.74
2790	898.72
2791	296.74
2792	221.10
2793	232.91
2794	307.43
2795	290.72
2796	227.24
2797	263.99
2798	189.32
2799	223.84
2800	261.77
2801	316.82
2802	366.04
2803	476.13
2804	841.06
2805	338.23
2806	336.48
2807	53.47
2808	52.81
2809	49.29
2810	31.68
2811	35.20
2812	31.68
2813	1748.10
2814	1576.56
2815	475.05
2816	242.14
2817	244.56
2818	351.58
2819	316.09
2820	239.64
2821	278.83
2822	214.14
2823	235.33
2824	273.02
2825	347.85
2826	411.93
2827	549.79
2828	987.63
2829	440.71
2830	424.56
2831	56.32
2832	54.60
2833	50.96
2834	32.76
2835	36.40
2836	33.15
2837	1684.81
2838	1486.47
2839	688.51
2840	296.24
2841	257.37
2842	334.88
2843	316.68
2844	247.51
2845	287.56
2846	196.56
2847	214.76
2848	236.60
2849	265.72
2850	285.27
2851	387.91
2852	462.88
2853	204.78
2854	174.23
2855	58.24
2856	48.33
2857	45.11
2858	29.00
2859	32.22
2860	29.00
2861	796.64
2862	946.04
2863	257.87
2864	196.56
2865	222.34
2866	296.44
2867	280.34
2868	219.12
2869	254.56
2870	174.00
2871	190.11
2872	209.45
2873	235.23
2874	244.89
2875	299.67
2876	224.49
2877	112.78
2878	80.56
2879	51.55
2880	49.67
2881	46.37
2882	29.80
2883	33.12
2884	29.80
2885	136.41
2886	656.67
2887	258.31
2888	202.02
2889	228.52
2890	304.68
2891	288.13
2892	225.20
2893	261.63
2894	178.84
2895	195.40
2896	215.26
2897	241.76
2898	251.70
2899	308.00
2900	225.20
2901	115.91
2902	82.79
2903	52.99
2904	51.02
2905	47.62
2906	30.62
2907	34.01
2908	30.62
2909	122.44
2910	496.95
2911	265.30
2912	207.47
2913	234.69
2914	312.92
2915	295.91
2916	231.29
2917	268.71
2918	183.67
2919	200.68
2920	221.08
2921	248.30
2922	258.50
2923	316.32
2924	231.29
2925	119.05
2926	85.03
2927	54.43
2928	49.23
2929	45.95
2930	29.54
2931	32.82
2932	29.54
2933	118.15
2934	448.29
2935	255.99
2936	200.20
2937	226.45
2938	301.94
2939	285.53
2940	223.18
2941	259.27
2942	177.23
2943	193.63
2944	213.32
2945	239.59
2946	249.43
2947	305.22
2948	223.18
2949	114.87
2950	82.05
2951	52.52
2952	53.27
2953	49.70
2954	31.96
2955	35.51
2956	31.96
2957	127.81
2958	482.87
2959	276.94
2960	216.58
2961	244.98
2962	326.64
2963	308.89
2964	241.43
2965	280.49
2966	191.73
2967	209.48
2968	230.78
2969	259.19
2970	269.83
2971	330.19
2972	241.43
2973	124.27
2974	88.76
2975	56.80
2976	52.36
2977	48.87
2978	31.42
2979	34.91
2980	31.42
2981	125.67
2982	475.37
2983	272.28
2984	212.94
2985	240.87
2986	321.16
2987	303.70
2988	237.38
2989	275.77
2990	188.50
2991	205.96
2992	226.91
2993	254.83
2994	266.31
2995	348.90
2996	360.11
2997	184.16
2998	159.99
2999	55.85
3000	50.57
3001	47.20
3002	30.34
3003	33.71
3004	30.34
3005	895.11
3006	1167.69
3007	498.79
3008	342.86
3009	315.93
3010	376.99
3011	352.20
3012	288.99
3013	326.94
3014	245.21
3015	268.60
3016	301.12
3017	349.33
3018	417.93
3019	619.76
3020	997.47
3021	425.92
3022	431.10
3023	53.94
3024	46.09
3025	43.03
3026	27.65
3027	30.73
3028	27.65
3029	1959.57
3030	1811.26
3031	909.76
3032	669.45
3033	530.70
3034	467.05
3035	316.98
3036	237.90
3037	262.14
3038	210.43
3039	250.38
3040	280.80
3041	426.24
3042	536.19
3043	685.19
3044	1087.78
3045	484.71
3046	466.65
3047	49.17
3048	56.39
3049	52.64
3050	33.83
3051	37.60
3052	33.83
3053	1334.83
3054	1101.52
3055	303.81
3056	229.32
3057	259.39
3058	345.86
3059	327.06
3060	255.63
3061	296.99
3062	203.00
3063	221.81
3064	244.35
3065	274.42
3066	285.70
3067	349.62
3068	414.61
3069	131.57
3070	93.98
3071	60.14
3072	54.15
3073	50.54
3074	32.49
3075	36.11
3076	32.49
3077	168.47
3078	857.08
3079	281.59
3080	220.22
3081	249.10
3082	332.14
3083	314.08
3084	245.49
3085	285.20
3086	194.95
3087	213.00
3088	234.66
3089	263.53
3090	274.37
3091	335.75
3092	504.02
3093	160.19
3094	135.21
3095	57.77
3096	61.76
3097	57.64
3098	37.06
3099	41.17
3100	37.06
3101	671.90
3102	1141.74
3103	420.09
3104	311.97
3105	312.33
3106	378.80
3107	358.21
3108	279.98
3109	325.27
3110	222.34
3111	242.92
3112	267.63
3113	300.57
3114	312.92
3115	414.65
3116	415.16
3117	213.87
3118	185.54
3119	65.87
3120	55.04
3121	51.38
3122	33.03
3123	36.70
3124	33.03
3125	998.56
3126	1006.13
3127	286.48
3128	223.86
3129	253.22
3130	337.62
3131	319.27
3132	249.55
3133	289.92
3134	198.17
3135	216.52
3136	238.54
3137	267.89
3138	278.90
3139	341.30
3140	327.56
3141	128.44
3142	91.75
3143	58.72
3144	55.50
3145	51.80
3146	33.29
3147	37.00
3148	33.29
3149	242.38
3150	785.72
3151	288.57
3152	225.68
3153	255.28
3154	340.37
3155	321.86
3156	251.57
3157	292.27
3158	199.78
3159	218.28
3160	240.47
3161	270.08
3162	281.17
3163	344.07
3164	323.83
3165	129.49
3166	92.50
3167	59.19
3168	48.79
3169	45.53
3170	29.27
3171	32.52
3172	29.27
3173	141.96
3174	757.06
3175	253.67
3176	198.38
3177	224.40
3178	299.20
3179	282.93
3180	221.15
3181	256.92
3182	175.61
3183	191.87
3184	211.39
3185	237.41
3186	247.16
3187	302.44
3188	346.44
3189	147.19
3190	134.51
3191	52.03
3192	53.27
3193	49.70
3194	31.96
3195	35.51
3196	31.96
3197	795.46
3198	1017.35
3199	375.64
3200	222.03
3201	244.98
3202	326.64
3203	308.89
3204	241.43
3205	280.49
3206	191.73
3207	209.48
3208	230.78
3209	287.73
3210	341.31
3211	427.57
3212	635.07
3213	249.18
3214	218.88
3215	56.80
3216	50.12
3217	46.79
3218	30.08
3219	33.41
3220	30.08
3221	1228.71
3222	1043.93
3223	284.06
3224	203.91
3225	230.57
3226	307.43
3227	290.72
3228	227.24
3229	263.99
3230	180.45
3231	197.16
3232	217.21
3233	244.64
3234	293.70
3235	389.71
3236	602.36
3237	241.40
3238	244.46
3239	53.47
3240	43.41
3241	40.52
3242	26.05
3243	28.94
3244	26.05
3245	1574.80
3246	1061.78
3247	254.05
3248	176.53
3249	199.69
3250	266.26
3251	251.79
3252	196.79
3253	228.63
3254	156.28
3255	170.75
3256	188.12
3257	211.27
3258	219.95
3259	269.15
3260	252.79
3261	101.30
3262	78.57
3263	46.30
3264	47.89
3265	44.69
3266	28.73
3267	31.92
3268	28.73
3269	664.89
3270	833.10
3271	294.51
3272	227.25
3273	233.34
3274	294.33
3275	277.74
3276	217.09
3277	252.20
3278	172.40
3279	188.35
3280	220.97
3281	266.88
3282	300.41
3283	375.84
3284	608.00
3285	210.59
3286	197.34
3287	51.07
3288	48.79
3289	45.53
3290	29.27
3291	32.52
3292	29.27
3293	1165.29
3294	1322.35
3295	479.30
3296	204.99
3297	224.40
3298	299.20
3299	282.93
3300	221.15
3301	256.92
3302	175.61
3303	191.87
3304	211.39
3305	237.41
3306	247.16
3307	313.80
3308	488.93
3309	170.22
3310	151.15
3311	52.03
3312	42.07
3313	39.26
3314	25.24
3315	28.04
3316	25.24
3317	576.97
3318	742.39
3319	218.76
3320	171.08
3321	193.51
3322	258.02
3323	244.00
3324	190.71
3325	221.56
3326	151.45
3327	165.47
3328	182.92
3329	228.69
3330	264.79
3331	333.16
3332	622.38
3333	197.79
3334	214.40
3335	44.87
3336	50.57
3337	47.20
3338	30.34
3339	33.71
3340	30.34
3341	1014.66
3342	958.86
3343	270.13
3344	205.66
3345	232.63
3346	310.18
3347	293.32
3348	229.26
3349	266.35
3350	182.06
3351	198.92
3352	219.14
3353	246.12
3354	256.23
3355	313.55
3356	359.85
3357	118.00
3358	85.53
3359	53.94
3360	47.44
3361	44.27
3362	28.46
3363	31.63
3364	28.46
3365	590.64
3366	970.36
3367	337.60
3368	246.90
3369	243.42
3370	290.95
3371	275.14
3372	215.06
3373	249.85
3374	170.78
3375	186.59
3376	205.57
3377	230.87
3378	257.63
3379	358.92
3380	488.91
3381	213.28
3382	190.37
3383	50.60
3384	45.64
3385	42.61
3386	27.39
3387	30.43
3388	27.39
3389	1025.08
3390	1192.75
3391	476.70
3392	315.37
3393	291.03
3394	335.83
3395	310.50
3396	246.45
3397	276.28
3398	206.11
3399	230.96
3400	266.96
3401	330.89
3402	363.05
3403	485.09
3404	868.52
3405	329.50
3406	311.99
3407	48.69
3408	48.79
3409	45.53
3410	29.27
3411	32.52
3412	29.27
3413	1219.58
3414	1362.32
3415	472.92
3416	205.38
3417	224.40
3418	299.20
3419	282.93
3420	221.15
3421	256.92
3422	175.61
3423	191.87
3424	211.39
3425	237.41
3426	247.16
3427	307.89
3428	512.66
3429	173.79
3430	154.03
3431	52.03
3432	40.72
3433	38.01
3434	24.43
3435	27.16
3436	24.43
3437	730.15
3438	826.89
3439	212.94
3440	165.62
3441	187.34
3442	249.79
3443	236.21
3444	184.63
3445	214.49
3446	146.61
3447	160.19
3448	176.48
3449	198.19
3450	206.35
3451	252.50
3452	190.07
3453	95.03
3454	67.88
3455	43.45
3456	48.79
3457	45.53
3458	29.27
3459	32.52
3460	29.27
3461	171.44
3462	669.79
3463	253.67
3464	198.38
3465	224.40
3466	299.20
3467	282.93
3468	221.15
3469	256.92
3470	175.61
3471	191.87
3472	211.39
3473	237.41
3474	247.16
3475	302.44
3476	383.62
3477	113.83
3478	83.33
3479	52.03
3480	48.33
3481	45.11
3482	29.00
3483	32.22
3484	29.00
3485	241.46
3486	739.78
3487	251.34
3488	196.56
3489	222.34
3490	296.44
3491	280.34
3492	219.12
3493	254.56
3494	174.00
3495	190.11
3496	209.45
3497	235.23
3498	244.89
3499	299.67
3500	219.12
3501	112.78
3502	80.56
3503	51.55
3504	42.96
3505	40.09
3506	25.78
3507	28.64
3508	25.78
3509	103.11
3510	529.46
3511	223.42
3512	174.72
3513	197.63
3514	263.51
3515	249.19
3516	194.77
3517	226.28
3518	154.67
3519	168.99
3520	186.18
3521	209.08
3522	217.68
3523	266.38
3524	206.05
3525	100.25
3526	71.61
3527	45.83
3528	57.73
3529	53.88
3530	34.64
3531	38.49
3532	34.64
3533	138.56
3534	695.56
3535	300.21
3536	234.78
3537	265.57
3538	354.10
3539	334.84
3540	261.72
3541	304.06
3542	207.84
3543	227.08
3544	250.18
3545	280.97
3546	292.51
3547	357.94
3548	261.72
3549	134.71
3550	96.23
3551	61.58
3552	40.72
3553	38.01
3554	24.43
3555	27.16
3556	24.43
3557	97.74
3558	373.53
3559	211.78
3560	165.62
3561	187.34
3562	249.79
3563	236.21
3564	184.63
3565	214.49
3566	146.61
3567	160.19
3568	176.48
3569	198.19
3570	206.35
3571	252.50
3572	184.63
3573	95.03
3574	67.88
3575	43.45
3576	58.63
3577	54.72
3578	35.17
3579	39.09
3580	35.17
3581	140.71
3582	531.56
3583	304.87
3584	238.42
3585	269.69
3586	359.58
3587	340.04
3588	265.78
3589	308.77
3590	211.06
3591	230.60
3592	254.06
3593	285.32
3594	297.05
3595	363.50
3596	265.78
3597	136.79
3598	97.72
3599	62.54
3600	59.52
3601	55.55
3602	35.71
3603	39.68
3604	35.71
3605	142.85
3606	656.80
3607	309.52
3608	242.06
3609	273.80
3610	365.07
3611	345.23
3612	269.83
3613	313.49
3614	214.28
3615	234.12
3616	257.93
3617	289.67
3618	301.58
3619	371.29
3620	463.66
3621	165.56
3622	132.88
3623	63.49
3624	45.20
3625	42.19
3626	27.12
3627	30.13
3628	27.12
3629	359.01
3630	825.32
3631	304.51
3632	230.87
3633	237.41
3634	293.03
3635	268.00
3636	206.85
3637	239.85
3638	167.24
3639	189.70
3640	224.88
3641	271.78
3642	303.69
3643	372.50
3644	651.66
3645	210.78
3646	189.44
3647	48.21
3648	49.67
3649	46.37
3650	29.80
3651	33.12
3652	29.80
3653	957.74
3654	999.83
3655	264.07
3656	202.02
3657	228.52
3658	304.68
3659	288.13
3660	225.20
3661	261.63
3662	178.84
3663	195.40
3664	215.26
3665	241.76
3666	251.70
3667	330.39
3668	453.40
3669	185.21
3670	166.40
3671	52.99
3672	42.96
3673	40.09
3674	25.78
3675	28.64
3676	25.78
3677	662.18
3678	823.22
3679	224.43
3680	174.72
3681	197.63
3682	263.51
3683	249.19
3684	194.77
3685	226.28
3686	154.67
3687	168.99
3688	186.18
3689	209.08
3690	217.68
3691	266.38
3692	227.51
3693	100.25
3694	71.61
3695	45.83
3696	40.28
3697	37.60
3698	24.17
3699	26.85
3700	24.17
3701	221.11
3702	720.56
3703	227.26
3704	164.51
3705	185.28
3706	247.04
3707	233.62
3708	182.59
3709	212.14
3710	145.00
3711	158.43
3712	174.53
3713	196.02
3714	204.08
3715	249.73
3716	228.56
3717	111.95
3718	106.41
3719	42.96
3720	42.52
3721	39.68
3722	25.51
3723	28.35
3724	25.51
3725	365.00
3726	753.83
3727	221.08
3728	172.91
3729	195.58
3730	260.77
3731	246.59
3732	192.74
3733	223.92
3734	153.06
3735	167.23
3736	184.23
3737	206.91
3738	215.42
3739	263.60
3740	194.06
3741	99.20
3742	70.87
3743	45.35
3744	46.09
3745	43.03
3746	27.65
3747	30.73
3748	27.65
3749	224.89
3750	652.83
3751	239.70
3752	187.46
3753	212.05
3754	282.72
3755	267.36
3756	208.97
3757	242.77
3758	165.94
3759	181.31
3760	199.75
3761	224.33
3762	233.56
3763	285.80
3764	208.97
3765	107.56
3766	76.83
3767	49.17
3768	50.12
3769	46.79
3770	30.08
3771	33.41
3772	30.08
3773	169.69
3774	656.44
3775	260.65
3776	203.83
3777	230.57
3778	307.43
3779	290.72
3780	227.24
3781	263.99
3782	180.45
3783	197.16
3784	217.21
3785	243.94
3786	253.96
3787	310.77
3788	425.18
3789	160.28
3790	139.39
3791	53.47
3792	51.91
3793	48.46
3794	31.15
3795	34.61
3796	31.15
3797	343.93
3798	813.93
3799	269.95
3800	211.12
3801	238.81
3802	318.41
3803	301.11
3804	235.35
3805	273.42
3806	186.89
3807	204.20
3808	224.96
3809	252.65
3810	263.03
3811	321.86
3812	284.27
3813	126.81
3814	118.26
3815	55.37
3816	46.55
3817	43.45
3818	27.93
3819	31.03
3820	27.93
3821	632.66
3822	914.80
3823	242.88
3824	189.28
3825	214.09
3826	285.47
3827	269.95
3828	211.00
3829	245.14
3830	167.56
3831	183.07
3832	201.69
3833	226.51
3834	235.82
3835	288.57
3836	211.00
3837	108.61
3838	77.57
3839	49.65
3840	40.28
3841	37.60
3842	24.17
3843	26.85
3844	24.17
3845	96.67
3846	403.39
3847	209.45
3848	163.81
3849	185.28
3850	247.04
3851	233.62
3852	182.59
3853	212.14
3854	145.00
3855	158.43
3856	174.53
3857	196.02
3858	204.08
3859	249.73
3860	182.59
3861	93.98
3862	67.13
3863	42.96
3864	43.85
3865	40.94
3866	26.32
3867	29.23
3868	26.32
3869	105.25
3870	397.65
3871	228.06
3872	178.36
3873	201.75
3874	269.00
3875	254.38
3876	198.83
3877	230.99
3878	157.89
3879	172.51
3880	190.06
3881	213.44
3882	222.23
3883	271.93
3884	198.83
3885	102.34
3886	73.09
3887	46.79
3888	42.52
3889	39.68
3890	25.51
3891	28.35
3892	25.51
3893	102.04
3894	385.48
3895	221.08
3896	172.91
3897	195.58
3898	260.77
3899	246.59
3900	192.74
3901	223.92
3902	153.06
3903	167.23
3904	184.23
3905	206.91
3906	215.42
3907	263.60
3908	192.74
3909	99.20
3910	70.87
3911	45.35
3912	44.76
3913	41.77
3914	26.85
3915	29.84
3916	26.85
3917	107.41
3918	405.76
3919	232.72
3920	182.00
3921	205.87
3922	274.49
3923	259.58
3924	202.88
3925	235.70
3926	161.12
3927	176.03
3928	193.94
3929	217.80
3930	226.75
3931	277.48
3932	202.88
3933	104.43
3934	74.59
3935	47.74
3936	41.17
3937	38.43
3938	24.70
3939	27.44
3940	24.70
3941	98.81
3942	373.31
3943	214.09
3944	167.44
3945	189.40
3946	252.53
3947	238.81
3948	186.65
3949	216.85
3950	148.22
3951	161.95
3952	178.42
3953	200.38
3954	208.61
3955	255.28
3956	186.65
3957	96.07
3958	68.62
3959	43.92
3960	38.49
3961	35.92
3962	23.10
3963	25.66
3964	23.10
3965	92.38
3966	348.97
3967	200.14
3968	156.52
3969	177.05
3970	236.06
3971	223.23
3972	174.48
3973	202.71
3974	138.56
3975	151.39
3976	166.78
3977	187.31
3978	195.01
3979	238.63
3980	174.48
3981	89.80
3982	64.15
3983	41.05
3984	43.85
3985	40.94
3986	26.32
3987	29.23
3988	26.32
3989	105.25
3990	397.65
3991	228.06
3992	178.36
3993	201.75
3994	269.00
3995	254.38
3996	198.83
3997	230.99
3998	157.89
3999	172.51
4000	190.06
4001	213.44
4002	222.23
4003	271.93
4004	198.83
4005	102.34
4006	73.09
4007	46.79
4008	40.28
4009	37.60
4010	24.17
4011	26.85
4012	24.17
4013	96.67
4014	365.20
4015	209.45
4016	163.81
4017	185.28
4018	247.04
4019	233.62
4020	182.59
4021	212.14
4022	145.00
4023	158.43
4024	174.53
4025	196.02
4026	204.08
4027	249.73
4028	182.59
4029	93.98
4030	67.13
4031	42.96
4032	38.04
4033	35.51
4034	22.82
4035	25.36
4036	22.82
4037	91.30
4038	344.91
4039	197.81
4040	154.70
4041	174.99
4042	233.32
4043	220.64
4044	172.45
4045	200.35
4046	136.95
4047	149.63
4048	164.84
4049	185.14
4050	192.74
4051	235.85
4052	172.45
4053	88.76
4054	63.41
4055	40.58
4056	44.76
4057	41.77
4058	26.85
4059	29.84
4060	26.85
4061	107.41
4062	405.76
4063	232.72
4064	182.00
4065	205.87
4066	274.49
4067	259.58
4068	202.88
4069	235.70
4070	161.12
4071	176.03
4072	193.94
4073	217.80
4074	226.75
4075	277.48
4076	202.88
4077	104.43
4078	74.59
4079	47.74
4080	38.04
4081	35.51
4082	22.82
4083	25.36
4084	22.82
4085	91.30
4086	344.91
4087	197.81
4088	154.70
4089	174.99
4090	233.32
4091	220.64
4092	172.45
4093	200.35
4094	136.95
4095	149.63
4096	164.84
4097	185.14
4098	192.74
4099	235.85
4100	172.45
4101	88.76
4102	63.41
4103	40.58
4104	32.22
4105	30.08
4106	19.33
4107	21.49
4108	19.33
4109	77.33
4110	292.16
4111	167.56
4112	131.04
4113	148.22
4114	197.63
4115	186.89
4116	146.07
4117	169.71
4118	116.00
4119	126.74
4120	139.63
4121	156.82
4122	163.26
4123	199.78
4124	146.07
4125	75.19
4126	53.71
4127	34.37
4128	43.85
4129	40.94
4130	26.32
4131	29.23
4132	26.32
4133	105.25
4134	397.65
4135	228.06
4136	178.36
4137	201.75
4138	269.00
4139	254.38
4140	198.83
4141	230.99
4142	157.89
4143	172.51
4144	190.06
4145	213.44
4146	222.23
4147	271.93
4148	198.83
4149	102.34
4150	73.09
4151	46.79
4152	38.93
4153	36.34
4154	23.36
4155	25.96
4156	23.36
4157	93.45
4158	353.02
4159	202.46
4160	158.34
4161	179.11
4162	238.81
4163	225.83
4164	176.51
4165	205.06
4166	140.17
4167	153.15
4168	168.72
4169	189.50
4170	197.27
4171	241.40
4172	176.51
4173	90.85
4174	64.90
4175	41.54
4176	30.88
4177	28.82
4178	18.53
4179	20.59
4180	18.53
4181	74.11
4182	279.98
4183	160.57
4184	125.58
4185	142.05
4186	189.40
4187	179.11
4188	139.99
4189	162.64
4190	111.17
4191	121.46
4192	133.81
4193	150.28
4194	156.47
4195	191.46
4196	139.99
4197	72.05
4198	51.47
4199	32.94
4200	41.17
4201	38.43
4202	24.70
4203	27.44
4204	24.70
4205	98.81
4206	373.31
4207	214.09
4208	167.44
4209	189.40
4210	252.53
4211	238.81
4212	186.65
4213	216.85
4214	148.22
4215	161.95
4216	178.42
4217	200.38
4218	208.61
4219	255.28
4220	186.65
4221	96.07
4222	68.62
4223	43.92
4224	38.93
4225	36.34
4226	23.36
4227	25.96
4228	23.36
4229	93.45
4230	353.02
4231	202.46
4232	158.34
4233	179.11
4234	238.81
4235	225.83
4236	176.51
4237	205.06
4238	140.17
4239	153.15
4240	168.72
4241	189.50
4242	197.27
4243	241.40
4244	176.51
4245	90.85
4246	64.90
4247	41.54
4248	36.70
4249	34.25
4250	22.02
4251	24.46
4252	22.02
4253	88.07
4254	332.73
4255	190.83
4256	149.24
4257	168.81
4258	225.08
4259	212.85
4260	166.37
4261	193.27
4262	132.11
4263	144.34
4264	159.03
4265	178.59
4266	185.93
4267	227.53
4268	166.37
4269	85.63
4270	61.16
4271	39.14
4272	38.04
4273	35.51
4274	22.82
4275	25.36
4276	22.82
4277	91.30
4278	344.91
4279	197.81
4280	154.70
4281	174.99
4282	233.32
4283	220.64
4284	172.45
4285	200.35
4286	136.95
4287	149.63
4288	164.84
4289	185.14
4290	192.74
4291	235.85
4292	172.45
4293	88.76
4294	63.41
4295	40.58
4296	43.41
4297	40.52
4298	26.05
4299	28.94
4300	26.05
4301	104.18
4302	393.59
4303	225.74
4304	176.53
4305	199.69
4306	266.26
4307	251.79
4308	196.79
4309	228.63
4310	156.28
4311	170.75
4312	188.12
4313	211.27
4314	219.95
4315	269.15
4316	196.79
4317	101.30
4318	72.35
4319	46.30
4320	46.99
4321	43.85
4322	28.19
4323	31.33
4324	28.19
4325	112.78
4326	426.06
4327	244.35
4328	191.10
4329	216.17
4330	288.22
4331	272.55
4332	213.03
4333	247.49
4334	169.17
4335	184.84
4336	203.63
4337	228.69
4338	238.09
4339	291.35
4340	213.03
4341	109.65
4342	78.32
4343	50.12
4344	49.67
4345	46.37
4346	29.80
4347	33.12
4348	29.80
4349	119.22
4350	450.72
4351	258.31
4352	202.02
4353	228.52
4354	304.68
4355	288.13
4356	225.20
4357	261.63
4358	178.84
4359	195.40
4360	215.26
4361	241.76
4362	251.70
4363	308.00
4364	225.20
4365	115.91
4366	82.79
4367	52.99
4368	44.76
4369	41.77
4370	26.85
4371	29.84
4372	26.85
4373	107.41
4374	453.21
4375	232.72
4376	182.00
4377	205.87
4378	274.49
4379	259.58
4380	202.88
4381	235.70
4382	161.12
4383	176.03
4384	193.94
4385	217.80
4386	226.75
4387	277.48
4388	202.88
4389	104.43
4390	74.59
4391	47.74
4392	39.38
4393	36.76
4394	23.63
4395	26.26
4396	23.63
4397	94.52
4398	370.22
4399	204.80
4400	160.16
4401	181.16
4402	241.55
4403	228.43
4404	178.55
4405	207.42
4406	141.78
4407	154.91
4408	170.66
4409	191.67
4410	199.55
4411	244.18
4412	178.55
4413	91.89
4414	65.64
4415	42.01
4416	40.28
4417	37.60
4418	24.17
4419	26.85
4420	24.17
4421	96.67
4422	365.20
4423	209.45
4424	163.81
4425	185.28
4426	247.04
4427	233.62
4428	182.59
4429	212.14
4430	145.00
4431	158.43
4432	174.53
4433	196.02
4434	204.08
4435	249.73
4436	182.59
4437	93.98
4438	67.13
4439	42.96
4440	41.62
4441	38.84
4442	24.97
4443	27.75
4444	24.97
4445	99.89
4446	386.15
4447	216.43
4448	169.26
4449	191.46
4450	255.28
4451	241.40
4452	188.68
4453	219.20
4454	149.84
4455	163.71
4456	180.36
4457	202.55
4458	210.88
4459	258.05
4460	188.68
4461	97.12
4462	69.37
4463	44.39
4464	43.85
4465	40.94
4466	26.32
4467	29.23
4468	26.32
4469	105.25
4470	421.99
4471	228.06
4472	178.36
4473	201.75
4474	269.00
4475	254.38
4476	198.83
4477	230.99
4478	157.89
4479	172.51
4480	190.06
4481	213.44
4482	222.23
4483	271.93
4484	199.29
4485	102.34
4486	73.09
4487	46.79
4488	42.52
4489	39.68
4490	25.51
4491	28.35
4492	25.51
4493	102.04
4494	516.92
4495	221.08
4496	172.91
4497	195.58
4498	260.77
4499	246.59
4500	192.74
4501	223.92
4502	153.06
4503	167.23
4504	184.23
4505	206.91
4506	215.42
4507	263.60
4508	192.74
4509	99.20
4510	70.87
4511	45.35
4512	38.93
4513	36.34
4514	23.36
4515	25.96
4516	23.36
4517	94.15
4518	559.60
4519	202.46
4520	158.34
4521	179.11
4522	238.81
4523	225.83
4524	176.51
4525	205.06
4526	140.17
4527	153.15
4528	168.72
4529	189.50
4530	197.27
4531	241.40
4532	176.51
4533	90.85
4534	64.90
4535	41.54
4536	37.14
4537	34.67
4538	22.29
4539	24.76
4540	22.29
4541	89.14
4542	441.79
4543	193.16
4544	151.06
4545	170.87
4546	227.83
4547	215.44
4548	168.40
4549	195.64
4550	133.72
4551	146.11
4552	160.97
4553	180.78
4554	188.20
4555	230.30
4556	168.40
4557	86.67
4558	61.91
4559	39.62
4560	39.38
4561	36.76
4562	23.63
4563	26.26
4564	23.63
4565	94.52
4566	357.08
4567	204.80
4568	160.16
4569	181.16
4570	241.55
4571	228.43
4572	178.55
4573	207.42
4574	141.78
4575	154.91
4576	170.66
4577	191.67
4578	199.55
4579	244.18
4580	178.55
4581	91.89
4582	65.64
4583	42.01
4584	37.14
4585	34.67
4586	22.29
4587	24.76
4588	22.29
4589	89.14
4590	336.79
4591	193.16
4592	151.06
4593	170.87
4594	227.83
4595	215.44
4596	168.40
4597	195.64
4598	133.72
4599	146.11
4600	160.97
4601	180.78
4602	188.20
4603	230.30
4604	168.40
4605	86.67
4606	61.91
4607	39.62
4608	37.14
4609	34.67
4610	22.29
4611	24.76
4612	22.29
4613	89.14
4614	336.79
4615	193.16
4616	151.06
4617	170.87
4618	227.83
4619	215.44
4620	168.40
4621	195.64
4622	133.72
4623	146.11
4624	160.97
4625	180.78
4626	188.20
4627	230.30
4628	168.40
4629	86.67
4630	61.91
4631	39.62
4632	43.85
4633	40.94
4634	26.32
4635	29.23
4636	26.32
4637	105.25
4638	397.65
4639	228.06
4640	178.36
4641	201.75
4642	269.00
4643	254.38
4644	198.83
4645	230.99
4646	157.89
4647	172.51
4648	190.06
4649	213.44
4650	222.23
4651	271.93
4652	198.83
4653	102.34
4654	73.09
4655	46.79
4656	44.76
4657	41.77
4658	26.85
4659	29.84
4660	26.85
4661	107.41
4662	405.76
4663	232.72
4664	182.00
4665	205.87
4666	274.49
4667	259.58
4668	202.88
4669	235.70
4670	161.12
4671	176.03
4672	193.94
4673	217.80
4674	226.75
4675	277.48
4676	202.88
4677	104.43
4678	74.59
4679	47.74
4680	34.91
4681	32.58
4682	20.94
4683	23.27
4684	20.94
4685	83.78
4686	316.50
4687	181.52
4688	141.96
4689	160.57
4690	214.09
4691	202.46
4692	158.25
4693	183.85
4694	125.67
4695	137.30
4696	151.27
4697	169.89
4698	176.87
4699	216.43
4700	158.25
4701	81.45
4702	58.18
4703	37.23
4704	43.85
4705	40.94
4706	26.32
4707	29.23
4708	26.32
4709	105.25
4710	397.65
4711	228.06
4712	178.36
4713	201.75
4714	269.00
4715	254.38
4716	198.83
4717	230.99
4718	157.89
4719	172.51
4720	190.06
4721	213.44
4722	222.23
4723	271.93
4724	198.83
4725	102.34
4726	73.09
4727	46.79
4728	37.14
4729	34.67
4730	22.29
4731	24.76
4732	22.29
4733	89.14
4734	336.79
4735	193.16
4736	151.06
4737	170.87
4738	227.83
4739	215.44
4740	168.40
4741	195.64
4742	133.72
4743	146.11
4744	160.97
4745	180.78
4746	188.20
4747	230.30
4748	168.40
4749	86.67
4750	61.91
4751	39.62
4752	36.70
4753	34.25
4754	22.02
4755	24.46
4756	22.02
4757	88.07
4758	332.73
4759	190.83
4760	149.24
4761	168.81
4762	225.08
4763	212.85
4764	166.37
4765	193.27
4766	132.11
4767	144.34
4768	159.03
4769	178.59
4770	185.93
4771	227.53
4772	166.37
4773	85.63
4774	61.16
4775	39.14
4776	37.60
4777	35.09
4778	22.56
4779	25.07
4780	22.56
4781	90.22
4782	340.84
4783	195.49
4784	152.88
4785	172.93
4786	230.57
4787	218.04
4788	170.42
4789	197.99
4790	135.34
4791	147.86
4792	162.90
4793	182.95
4794	190.48
4795	233.08
4796	170.42
4797	87.72
4798	62.66
4799	40.09
4800	41.17
4801	38.43
4802	24.70
4803	27.44
4804	24.70
4805	98.81
4806	373.31
4807	214.09
4808	167.44
4809	189.40
4810	252.53
4811	238.81
4812	186.65
4813	216.85
4814	148.22
4815	161.95
4816	178.42
4817	200.38
4818	208.61
4819	255.28
4820	186.65
4821	96.07
4822	68.62
4823	43.92
4824	32.67
4825	30.49
4826	19.61
4827	21.78
4828	19.61
4829	78.41
4830	296.21
4831	169.89
4832	132.85
4833	150.28
4834	200.38
4835	189.50
4836	148.10
4837	172.06
4838	117.61
4839	128.50
4840	141.57
4841	159.00
4842	165.53
4843	202.55
4844	148.10
4845	76.23
4846	54.46
4847	34.85
4848	30.88
4849	28.82
4850	18.53
4851	20.59
4852	18.53
4853	74.11
4854	279.98
4855	160.57
4856	125.58
4857	142.05
4858	189.40
4859	179.11
4860	139.99
4861	162.64
4862	111.17
4863	121.46
4864	133.81
4865	150.28
4866	156.47
4867	191.46
4868	139.99
4869	72.05
4870	51.47
4871	32.94
4872	33.56
4873	31.33
4874	20.14
4875	22.38
4876	20.14
4877	80.56
4878	304.33
4879	174.53
4880	136.49
4881	154.40
4882	205.87
4883	194.68
4884	152.16
4885	176.77
4886	120.84
4887	132.03
4888	145.45
4889	163.35
4890	170.06
4891	208.10
4892	152.16
4893	78.32
4894	55.94
4895	35.80
4896	36.70
4897	34.25
4898	22.02
4899	24.46
4900	22.02
4901	88.07
4902	332.73
4903	190.83
4904	149.24
4905	168.81
4906	225.08
4907	212.85
4908	166.37
4909	193.27
4910	132.11
4911	144.34
4912	159.03
4913	178.59
4914	185.93
4915	227.53
4916	166.37
4917	85.63
4918	61.16
4919	39.14
4920	33.12
4921	30.91
4922	19.87
4923	22.08
4924	19.87
4925	79.48
4926	300.27
4927	172.22
4928	134.68
4929	152.34
4930	203.12
4931	192.09
4932	150.13
4933	174.42
4934	119.22
4935	130.26
4936	143.51
4937	161.18
4938	167.80
4939	205.33
4940	150.13
4941	77.28
4942	55.20
4943	35.33
4944	34.45
4945	32.17
4946	20.68
4947	22.98
4948	20.68
4949	82.71
4950	312.44
4951	179.20
4952	140.15
4953	158.52
4954	211.36
4955	199.87
4956	156.23
4957	181.49
4958	124.06
4959	135.55
4960	149.33
4961	167.71
4962	174.60
4963	213.65
4964	156.23
4965	80.41
4966	57.44
4967	36.76
4968	39.38
4969	36.76
4970	23.63
4971	26.26
4972	23.63
4973	94.52
4974	357.08
4975	204.80
4976	160.16
4977	181.16
4978	241.55
4979	228.43
4980	178.55
4981	207.42
4982	141.78
4983	154.91
4984	170.66
4985	191.67
4986	199.55
4987	244.18
4988	178.55
4989	91.89
4990	65.64
4991	42.01
4992	38.49
4993	35.92
4994	23.10
4995	25.66
4996	23.10
4997	92.38
4998	348.97
4999	200.14
5000	156.52
5001	177.05
5002	236.06
5003	223.23
5004	174.48
5005	202.71
5006	138.56
5007	151.39
5008	166.78
5009	187.31
5010	195.01
5011	238.63
5012	174.48
5013	89.80
5014	64.15
5015	41.05
5016	29.98
5017	27.99
5018	17.99
5019	19.99
5020	17.99
5021	71.96
5022	271.87
5023	155.93
5024	121.94
5025	137.93
5026	183.91
5027	173.91
5028	135.93
5029	157.92
5030	107.95
5031	117.94
5032	129.93
5033	145.93
5034	151.92
5035	185.90
5036	135.93
5037	69.96
5038	49.98
5039	31.99
5040	35.36
5041	33.00
5042	21.21
5043	23.57
5044	21.21
5045	84.86
5046	320.56
5047	183.85
5048	143.78
5049	162.64
5050	216.85
5051	205.06
5052	160.28
5053	186.21
5054	127.28
5055	139.06
5056	153.21
5057	172.06
5058	179.13
5059	219.20
5060	160.28
5061	82.50
5062	58.93
5063	37.72
5064	36.26
5065	33.83
5066	21.75
5067	24.17
5068	21.75
5069	87.00
5070	328.67
5071	188.50
5072	147.42
5073	166.75
5074	222.34
5075	210.25
5076	164.34
5077	190.92
5078	130.50
5079	142.59
5080	157.09
5081	176.41
5082	183.67
5083	224.75
5084	164.34
5085	84.59
5086	60.42
5087	38.67
5088	29.09
5089	27.16
5090	17.46
5091	19.39
5092	17.46
5093	69.82
5094	263.75
5095	151.27
5096	118.30
5097	133.81
5098	178.42
5099	168.72
5100	131.87
5101	153.21
5102	104.72
5103	114.42
5104	126.06
5105	141.57
5106	147.39
5107	180.36
5108	131.87
5109	67.88
5110	48.49
5111	31.03
5112	30.43
5113	28.39
5114	18.25
5115	20.29
5116	18.25
5117	73.04
5118	275.92
5119	158.25
5120	123.76
5121	139.99
5122	186.65
5123	176.51
5124	137.96
5125	160.28
5126	109.56
5127	119.70
5128	131.87
5129	148.10
5130	154.19
5131	188.68
5132	137.96
5133	71.01
5134	50.72
5135	32.47
5136	33.12
5137	30.91
5138	19.87
5139	22.08
5140	19.87
5141	79.48
5142	300.27
5143	172.22
5144	134.68
5145	152.34
5146	203.12
5147	192.09
5148	150.13
5149	174.42
5150	119.22
5151	130.26
5152	143.51
5153	161.18
5154	167.80
5155	205.33
5156	150.13
5157	77.28
5158	55.20
5159	35.33
5160	35.36
5161	33.00
5162	21.21
5163	23.57
5164	21.21
5165	84.86
5166	320.56
5167	183.85
5168	143.78
5169	162.64
5170	216.85
5171	205.06
5172	160.28
5173	186.21
5174	127.28
5175	139.06
5176	153.21
5177	172.06
5178	179.13
5179	219.20
5180	160.28
5181	82.50
5182	58.93
5183	37.72
5184	38.49
5185	35.92
5186	23.10
5187	25.66
5188	23.10
5189	92.38
5190	348.97
5191	200.14
5192	156.52
5193	177.05
5194	236.06
5195	223.23
5196	174.48
5197	202.71
5198	138.56
5199	151.39
5200	166.78
5201	187.31
5202	195.01
5203	238.63
5204	174.48
5205	89.80
5206	64.15
5207	41.05
5208	31.78
5209	29.66
5210	19.07
5211	21.19
5212	19.07
5213	76.26
5214	288.10
5215	165.23
5216	129.22
5217	146.17
5218	194.89
5219	184.30
5220	144.05
5221	167.35
5222	114.39
5223	124.98
5224	137.70
5225	154.64
5226	160.99
5227	197.00
5228	144.05
5229	74.14
5230	52.96
5231	33.89
5232	35.80
5233	33.41
5234	21.49
5235	23.87
5236	21.49
5237	85.93
5238	324.62
5239	186.18
5240	145.60
5241	164.69
5242	219.59
5243	207.66
5244	162.31
5245	188.56
5246	128.89
5247	140.83
5248	155.15
5249	174.24
5250	181.41
5251	221.98
5252	162.31
5253	83.54
5254	59.68
5255	38.19
5256	35.80
5257	33.41
5258	21.49
5259	23.87
5260	21.49
5261	85.93
5262	324.62
5263	186.18
5264	145.60
5265	164.69
5266	219.59
5267	207.66
5268	162.31
5269	188.56
5270	128.89
5271	140.83
5272	155.15
5273	174.24
5274	181.41
5275	221.98
5276	162.31
5277	83.54
5278	59.68
5279	38.19
5280	32.67
5281	30.49
5282	19.61
5283	21.78
5284	19.61
5285	78.41
5286	296.21
5287	169.89
5288	132.85
5289	150.28
5290	200.38
5291	189.50
5292	148.10
5293	172.06
5294	117.61
5295	128.50
5296	141.57
5297	159.00
5298	165.53
5299	202.55
5300	148.10
5301	76.23
5302	54.46
5303	34.85
5304	29.09
5305	27.16
5306	17.46
5307	19.39
5308	17.46
5309	69.82
5310	263.75
5311	151.27
5312	118.30
5313	133.81
5314	178.42
5315	168.72
5316	131.87
5317	153.21
5318	104.72
5319	114.42
5320	126.06
5321	141.57
5322	147.39
5323	180.36
5324	131.87
5325	67.88
5326	48.49
5327	31.03
5328	38.49
5329	35.92
5330	23.10
5331	25.66
5332	23.10
5333	92.38
5334	348.97
5335	200.14
5336	156.52
5337	177.05
5338	236.06
5339	223.23
5340	174.48
5341	202.71
5342	138.56
5343	151.39
5344	166.78
5345	187.31
5346	195.01
5347	238.63
5348	174.48
5349	89.80
5350	64.15
5351	41.05
5352	26.41
5353	24.64
5354	15.85
5355	17.60
5356	15.85
5357	63.37
5358	239.41
5359	137.30
5360	107.38
5361	121.46
5362	161.95
5363	153.15
5364	119.70
5365	139.06
5366	95.05
5367	103.85
5368	114.42
5369	128.50
5370	133.78
5371	163.71
5372	119.70
5373	61.61
5374	44.01
5375	28.16
5376	33.56
5377	31.33
5378	20.14
5379	22.38
5380	20.14
5381	80.56
5382	304.33
5383	174.53
5384	136.49
5385	154.40
5386	205.87
5387	194.68
5388	152.16
5389	176.77
5390	120.84
5391	132.03
5392	145.45
5393	163.35
5394	170.06
5395	208.10
5396	152.16
5397	78.32
5398	55.94
5399	35.80
5400	32.22
5401	30.08
5402	19.33
5403	21.49
5404	19.33
5405	77.33
5406	292.16
5407	167.56
5408	131.04
5409	148.22
5410	197.63
5411	186.89
5412	146.07
5413	169.71
5414	116.00
5415	126.74
5416	139.63
5417	156.82
5418	163.26
5419	199.78
5420	146.07
5421	75.19
5422	53.71
5423	34.37
5424	36.70
5425	34.25
5426	22.02
5427	24.46
5428	22.02
5429	88.07
5430	332.73
5431	190.83
5432	149.24
5433	168.81
5434	225.08
5435	212.85
5436	166.37
5437	193.27
5438	132.11
5439	144.34
5440	159.03
5441	178.59
5442	185.93
5443	227.53
5444	166.37
5445	85.63
5446	61.16
5447	39.14
5448	29.09
5449	27.16
5450	17.46
5451	19.39
5452	17.46
5453	69.82
5454	263.75
5455	151.27
5456	118.30
5457	133.81
5458	178.42
5459	168.72
5460	131.87
5461	153.21
5462	104.72
5463	114.42
5464	126.06
5465	141.57
5466	147.39
5467	180.36
5468	131.87
5469	67.88
5470	48.49
5471	31.03
5472	32.67
5473	30.49
5474	19.61
5475	21.78
5476	19.61
5477	78.41
5478	296.21
5479	169.89
5480	132.85
5481	150.28
5482	200.38
5483	189.50
5484	148.10
5485	172.06
5486	117.61
5487	128.50
5488	141.57
5489	159.00
5490	165.53
5491	202.55
5492	148.10
5493	76.23
5494	54.46
5495	34.85
5496	39.83
5497	37.18
5498	23.89
5499	26.55
5500	23.89
5501	95.59
5502	361.13
5503	207.12
5504	161.98
5505	183.23
5506	244.30
5507	231.01
5508	180.57
5509	209.77
5510	143.38
5511	156.67
5512	172.60
5513	193.84
5514	201.81
5515	246.95
5516	180.57
5517	92.94
5518	66.39
5519	42.49
5520	32.22
5521	30.08
5522	19.33
5523	21.49
5524	19.33
5525	77.33
5526	292.16
5527	167.56
5528	131.04
5529	148.22
5530	197.63
5531	186.89
5532	146.07
5533	169.71
5534	116.00
5535	126.74
5536	139.63
5537	156.82
5538	163.26
5539	199.78
5540	146.07
5541	75.19
5542	53.71
5543	34.37
5544	28.19
5545	26.32
5546	16.92
5547	18.79
5548	16.92
5549	67.67
5550	255.63
5551	146.61
5552	114.66
5553	129.70
5554	172.93
5555	163.53
5556	127.81
5557	148.49
5558	101.50
5559	110.90
5560	122.18
5561	137.21
5562	142.85
5563	174.81
5564	127.81
5565	65.79
5566	46.99
5567	30.08
5568	41.17
5569	38.43
5570	24.70
5571	27.44
5572	24.70
5573	98.81
5574	373.31
5575	214.09
5576	167.44
5577	189.40
5578	252.53
5579	238.81
5580	186.65
5581	216.85
5582	148.22
5583	161.95
5584	178.42
5585	200.38
5586	208.61
5587	255.28
5588	186.65
5589	96.07
5590	68.62
5591	43.92
5592	31.33
5593	29.23
5594	18.79
5595	20.89
5596	18.79
5597	75.19
5598	284.04
5599	162.90
5600	127.40
5601	144.10
5602	192.13
5603	181.70
5604	142.02
5605	164.99
5606	112.78
5607	123.23
5608	135.75
5609	152.46
5610	158.73
5611	194.23
5612	142.02
5613	73.09
5614	52.22
5615	33.41
5616	37.14
5617	34.67
5618	22.29
5619	24.76
5620	22.29
5621	89.14
5622	349.23
5623	193.16
5624	151.06
5625	170.87
5626	227.83
5627	215.44
5628	168.40
5629	195.64
5630	133.72
5631	146.11
5632	160.97
5633	180.78
5634	188.20
5635	230.30
5636	168.40
5637	86.67
5638	61.91
5639	39.62
5640	32.67
5641	30.49
5642	19.61
5643	21.78
5644	19.61
5645	78.41
5646	305.47
5647	169.89
5648	132.85
5649	150.28
5650	200.38
5651	189.50
5652	148.10
5653	172.06
5654	117.61
5655	128.50
5656	141.57
5657	159.00
5658	165.53
5659	202.55
5660	148.10
5661	76.23
5662	54.46
5663	34.85
5664	39.38
5665	36.76
5666	23.63
5667	26.26
5668	23.63
5669	94.52
5670	357.08
5671	204.80
5672	160.16
5673	181.16
5674	241.55
5675	228.43
5676	178.55
5677	207.42
5678	141.78
5679	154.91
5680	170.66
5681	191.67
5682	199.55
5683	244.18
5684	178.55
5685	91.89
5686	65.64
5687	42.01
5688	42.52
5689	39.68
5690	25.51
5691	28.35
5692	25.51
5693	102.04
5694	385.48
5695	221.08
5696	172.91
5697	195.58
5698	260.77
5699	246.59
5700	192.74
5701	223.92
5702	153.06
5703	167.23
5704	184.23
5705	206.91
5706	215.42
5707	263.60
5708	192.74
5709	99.20
5710	70.87
5711	45.35
5712	34.45
5713	32.17
5714	20.68
5715	22.98
5716	20.68
5717	82.71
5718	312.44
5719	179.20
5720	140.15
5721	158.52
5722	211.36
5723	199.87
5724	156.23
5725	181.49
5726	124.06
5727	135.55
5728	149.33
5729	167.71
5730	174.60
5731	213.65
5732	156.23
5733	80.41
5734	57.44
5735	36.76
5736	40.28
5737	37.60
5738	24.17
5739	26.85
5740	24.17
5741	96.67
5742	365.20
5743	209.45
5744	163.81
5745	185.28
5746	247.04
5747	233.62
5748	182.59
5749	212.14
5750	145.00
5751	158.43
5752	174.53
5753	196.02
5754	204.08
5755	249.73
5756	182.59
5757	93.98
5758	67.13
5759	42.96
5760	37.14
5761	34.67
5762	22.29
5763	24.76
5764	22.29
5765	89.14
5766	336.79
5767	193.16
5768	151.06
5769	170.87
5770	227.83
5771	215.44
5772	168.40
5773	195.64
5774	133.72
5775	146.11
5776	160.97
5777	180.78
5778	188.20
5779	230.30
5780	168.40
5781	86.67
5782	61.91
5783	39.62
5784	42.07
5785	39.26
5786	25.24
5787	28.04
5788	25.24
5789	100.97
5790	454.38
5791	218.76
5792	171.08
5793	193.51
5794	258.02
5795	244.00
5796	190.71
5797	221.56
5798	151.45
5799	165.47
5800	182.30
5801	204.74
5802	213.15
5803	260.83
5804	234.42
5805	98.16
5806	70.12
5807	44.87
5808	37.60
5809	35.09
5810	22.56
5811	25.07
5812	22.56
5813	110.06
5814	566.48
5815	195.49
5816	152.88
5817	172.93
5818	230.57
5819	218.04
5820	170.42
5821	197.99
5822	135.34
5823	147.86
5824	162.90
5825	182.95
5826	199.11
5827	256.57
5828	419.08
5829	127.39
5830	108.54
5831	40.09
5832	41.17
5833	38.43
5834	24.70
5835	27.44
5836	24.70
5837	651.73
5838	869.45
5839	219.15
5840	167.44
5841	189.40
5842	252.53
5843	238.81
5844	186.65
5845	216.85
5846	148.22
5847	161.95
5848	178.42
5849	200.38
5850	226.58
5851	293.86
5852	467.27
5853	150.51
5854	127.97
5855	43.92
5856	33.12
5857	30.91
5858	19.87
5859	22.08
5860	19.87
5861	742.15
5862	811.74
5863	172.22
5864	134.68
5865	152.34
5866	203.12
5867	192.09
5868	150.13
5869	174.42
5870	119.22
5871	130.26
5872	143.51
5873	161.18
5874	167.80
5875	205.33
5876	150.13
5877	77.28
5878	55.20
5879	35.33
5880	38.49
5881	35.92
5882	23.10
5883	25.66
5884	23.10
5885	123.18
5886	530.58
5887	200.14
5888	156.52
5889	177.05
5890	236.06
5891	223.23
5892	174.48
5893	202.71
5894	138.56
5895	151.39
5896	166.78
5897	187.31
5898	195.01
5899	238.63
5900	174.48
5901	89.80
5902	64.15
5903	41.05
5904	32.22
5905	30.08
5906	19.33
5907	21.49
5908	19.33
5909	77.33
5910	370.79
5911	167.56
5912	131.04
5913	148.22
5914	197.63
5915	186.89
5916	146.07
5917	169.71
5918	116.00
5919	126.74
5920	139.63
5921	156.82
5922	163.26
5923	199.78
5924	147.94
5925	75.19
5926	53.71
5927	34.37
5928	36.26
5929	33.83
5930	21.75
5931	24.17
5932	21.75
5933	87.00
5934	496.13
5935	188.50
5936	147.42
5937	166.75
5938	222.34
5939	210.25
5940	164.34
5941	190.92
5942	130.50
5943	142.59
5944	157.09
5945	176.41
5946	183.67
5947	224.75
5948	164.34
5949	84.59
5950	60.42
5951	38.67
5952	36.70
5953	34.25
5954	22.02
5955	24.46
5956	22.02
5957	132.09
5958	521.65
5959	194.87
5960	149.24
5961	168.81
5962	225.08
5963	212.85
5964	166.37
5965	193.27
5966	132.11
5967	144.34
5968	159.03
5969	178.59
5970	185.93
5971	227.53
5972	166.37
5973	85.63
5974	61.16
5975	39.14
5976	29.98
5977	27.99
5978	17.99
5979	19.99
5980	17.99
5981	71.96
5982	331.91
5983	155.93
5984	121.94
5985	137.93
5986	183.91
5987	173.91
5988	135.93
5989	157.92
5990	107.95
5991	117.94
5992	129.93
5993	145.93
5994	151.92
5995	185.90
5996	135.93
5997	69.96
5998	49.98
5999	31.99
6000	32.67
6001	30.49
6002	19.61
6003	21.78
6004	19.61
6005	78.41
6006	399.81
6007	169.89
6008	132.85
6009	150.28
6010	200.38
6011	189.50
6012	148.10
6013	172.06
6014	117.61
6015	128.50
6016	141.57
6017	159.00
6018	165.53
6019	202.55
6020	148.10
6021	76.23
6022	54.46
6023	34.85
6024	26.41
6025	24.64
6026	15.85
6027	17.60
6028	15.85
6029	63.37
6030	243.53
6031	137.30
6032	107.38
6033	121.46
6034	161.95
6035	153.15
6036	119.70
6037	139.06
6038	95.05
6039	103.85
6040	114.42
6041	128.50
6042	133.78
6043	163.71
6044	119.70
6045	61.61
6046	44.01
6047	28.16
6048	32.22
6049	30.08
6050	19.33
6051	21.49
6052	19.33
6053	77.33
6054	292.16
6055	167.56
6056	131.04
6057	148.22
6058	197.63
6059	186.89
6060	146.07
6061	169.71
6062	116.00
6063	126.74
6064	139.63
6065	156.82
6066	163.26
6067	199.78
6068	148.56
6069	75.19
6070	53.71
6071	34.37
6072	28.64
6073	26.74
6074	17.18
6075	19.09
6076	17.18
6077	68.75
6078	406.61
6079	148.94
6080	116.48
6081	131.75
6082	175.67
6083	166.12
6084	129.85
6085	150.85
6086	103.11
6087	112.66
6088	124.12
6089	139.40
6090	145.12
6091	177.59
6092	291.39
6093	81.38
6094	69.75
6095	30.55
6096	36.70
6097	34.25
6098	22.02
6099	24.46
6100	22.02
6101	514.37
6102	704.97
6103	190.83
6104	149.24
6105	168.81
6106	225.08
6107	212.85
6108	166.37
6109	193.27
6110	132.11
6111	144.34
6112	159.03
6113	178.59
6114	185.93
6115	227.53
6116	166.37
6117	85.63
6118	61.16
6119	39.14
6120	36.70
6121	34.25
6122	22.02
6123	24.46
6124	22.02
6125	308.57
6126	573.61
6127	190.83
6128	149.24
6129	168.81
6130	225.08
6131	212.85
6132	166.37
6133	193.27
6134	132.11
6135	144.34
6136	159.03
6137	178.59
6138	185.93
6139	227.53
6140	166.37
6141	85.63
6142	61.16
6143	39.14
6144	45.64
6145	42.61
6146	27.39
6147	30.43
6148	27.39
6149	109.56
6150	589.28
6151	237.38
6152	185.63
6153	209.99
6154	279.98
6155	264.76
6156	206.94
6157	240.42
6158	164.34
6159	179.55
6160	197.81
6161	222.16
6162	231.29
6163	283.03
6164	380.77
6165	121.06
6166	95.61
6167	48.69
6168	50.57
6169	47.20
6170	30.34
6171	33.71
6172	30.34
6173	667.46
6174	907.21
6175	262.97
6176	205.66
6177	232.63
6178	310.18
6179	293.32
6180	229.26
6181	266.35
6182	182.06
6183	198.92
6184	219.14
6185	246.12
6186	256.23
6187	313.55
6188	266.13
6189	118.00
6190	84.28
6191	53.94
6192	40.28
6193	37.60
6194	24.17
6195	26.85
6196	24.17
6197	577.33
6198	911.28
6199	236.60
6200	184.89
6201	185.28
6202	247.04
6203	233.62
6204	182.59
6205	212.14
6206	145.00
6207	158.43
6208	174.53
6209	196.02
6210	208.04
6211	274.46
6212	417.25
6213	143.92
6214	125.47
6215	42.96
6216	34.45
6217	32.17
6218	20.68
6219	22.98
6220	20.68
6221	688.60
6222	930.85
6223	219.64
6224	140.15
6225	158.52
6226	211.36
6227	199.87
6228	156.23
6229	181.49
6230	124.06
6231	135.55
6232	149.33
6233	183.50
6234	217.30
6235	266.93
6236	481.65
6237	155.39
6238	168.66
6239	36.76
6240	40.28
6241	37.60
6242	24.17
6243	26.85
6244	24.17
6245	878.80
6246	1237.32
6247	498.63
6248	179.67
6249	185.28
6250	255.29
6251	250.65
6252	196.75
6253	229.17
6254	169.96
6255	197.79
6256	256.51
6257	401.12
6258	399.14
6259	495.97
6260	850.71
6261	333.07
6262	320.53
6263	42.96
6264	42.07
6265	39.26
6266	25.24
6267	28.04
6268	25.24
6269	1437.58
6270	1530.51
6271	534.38
6272	204.92
6273	193.51
6274	258.02
6275	244.00
6276	190.71
6277	221.56
6278	151.45
6279	165.47
6280	182.30
6281	217.88
6282	266.27
6283	331.14
6284	560.00
6285	181.77
6286	172.78
6287	44.87
6288	39.38
6289	36.76
6290	23.63
6291	26.26
6292	23.63
6293	1033.61
6294	1284.89
6295	377.00
6296	162.57
6297	181.16
6298	241.55
6299	228.43
6300	178.55
6301	207.42
6302	141.78
6303	157.32
6304	201.54
6305	254.28
6306	279.35
6307	333.39
6308	651.28
6309	240.60
6310	236.67
6311	42.01
6312	51.47
6313	48.04
6314	30.88
6315	34.31
6316	30.88
6317	1263.90
6318	1582.27
6319	755.76
6320	528.26
6321	419.60
6322	415.76
6323	351.71
6324	278.90
6325	320.84
6326	254.42
6327	257.74
6328	347.93
6329	527.76
6330	562.47
6331	719.88
6332	1118.82
6333	487.75
6334	455.23
6335	54.90
6336	52.36
6337	48.87
6338	31.42
6339	34.91
6340	31.42
6341	1808.00
6342	1920.56
6343	1016.54
6344	726.04
6345	319.74
6346	321.62
6347	303.70
6348	237.38
6349	275.77
6350	203.43
6351	257.21
6352	308.49
6353	407.90
6354	571.04
6355	659.94
6356	1048.99
6357	457.01
6358	456.33
6359	55.85
6360	45.20
6361	42.19
6362	27.12
6363	30.13
6364	31.24
6365	1889.60
6366	1929.30
6367	1075.21
6368	841.04
6369	724.76
6370	677.02
6371	603.06
6372	504.12
6373	399.76
6374	340.99
6375	338.41
6376	519.89
6377	800.98
6378	928.32
6379	1112.24
6380	1473.70
6381	829.19
6382	829.63
6383	56.22
6384	72.32
6385	81.19
6386	76.08
6387	85.88
6388	91.72
6389	2946.39
6390	2229.52
6391	636.99
6392	270.22
6393	189.97
6394	214.09
6395	202.46
6396	158.25
6397	183.85
6398	125.67
6399	140.26
6400	201.67
6401	360.37
6402	364.15
6403	491.61
6404	933.46
6405	422.51
6406	466.12
6407	37.23
6408	41.62
6409	38.84
6410	24.97
6411	33.89
6412	44.41
6413	2174.15
6414	2013.26
6415	1157.54
6416	926.82
6417	746.33
6418	465.74
6419	334.89
6420	243.90
6421	265.87
6422	198.53
6423	237.99
6424	370.68
6425	592.92
6426	666.34
6427	797.99
6428	1214.02
6429	629.12
6430	637.07
6431	44.39
6432	43.29
6433	63.56
6434	63.42
6435	72.78
6436	73.22
6437	2524.55
6438	2194.41
6439	1282.17
6440	1023.77
6441	853.60
6442	741.64
6443	571.00
6444	294.81
6445	245.59
6446	174.23
6447	204.02
6448	299.00
6449	455.34
6450	473.62
6451	622.05
6452	1074.53
6453	512.40
6454	532.81
6455	41.54
6456	37.60
6457	35.09
6458	22.56
6459	27.01
6460	35.70
6461	2166.11
6462	2016.26
6463	1121.59
6464	778.29
6465	333.77
6466	271.48
6467	258.10
6468	209.31
6469	233.38
6470	174.93
6471	205.65
6472	324.44
6473	471.67
6474	499.41
6475	592.10
6476	995.72
6477	413.84
6478	418.33
6479	40.09
6480	42.52
6481	39.68
6482	25.51
6483	28.43
6484	35.93
6485	1903.92
6486	1866.99
6487	707.12
6488	230.15
6489	196.12
6490	261.23
6491	250.25
6492	193.90
6493	223.92
6494	153.06
6495	181.23
6496	228.64
6497	297.29
6498	318.39
6499	417.60
6500	829.74
6501	319.39
6502	326.83
6503	45.35
6504	53.71
6505	50.12
6506	32.22
6507	35.80
6508	32.22
6509	1915.37
6510	1948.13
6511	752.23
6512	610.32
6513	267.34
6514	329.38
6515	311.49
6516	243.47
6517	282.85
6518	193.34
6519	211.24
6520	243.22
6521	319.23
6522	353.46
6523	426.61
6524	722.11
6525	260.72
6526	259.77
6527	57.28
6528	45.64
6529	42.61
6530	27.39
6531	30.43
6532	27.39
6533	1055.96
6534	1441.49
6535	668.34
6536	476.91
6537	384.36
6538	374.02
6539	295.25
6540	219.31
6541	246.49
6542	164.50
6543	183.83
6544	236.78
6545	304.45
6546	338.39
6547	401.25
6548	705.65
6549	278.40
6550	288.65
6551	48.69
6552	45.20
6553	42.19
6554	27.12
6555	30.13
6556	27.12
6557	1229.27
6558	1492.19
6559	571.98
6560	484.27
6561	444.84
6562	447.34
6563	384.27
6564	296.45
6565	311.87
6566	199.36
6567	220.42
6568	304.91
6569	435.27
6570	429.30
6571	536.30
6572	892.70
6573	339.89
6574	322.98
6575	48.21
6576	45.64
6577	42.61
6578	27.39
6579	30.43
6580	27.39
6581	1491.36
6582	1670.70
6583	580.06
6584	243.34
6585	210.92
6586	311.79
6587	274.56
6588	206.94
6589	240.42
6590	164.34
6591	179.55
6592	197.81
6593	222.31
6594	256.03
6595	320.05
6596	481.42
6597	155.52
6598	131.85
6599	48.69
6600	54.60
6601	50.96
6602	32.76
6603	36.40
6604	32.76
6605	617.70
6606	1143.78
6607	474.70
6608	355.04
6609	339.66
6610	396.48
6611	368.87
6612	272.17
6613	299.00
6614	214.45
6615	251.86
6616	302.01
6617	389.46
6618	390.19
6619	483.89
6620	794.84
6621	303.95
6622	289.42
6623	58.24
6624	45.64
6625	42.61
6626	27.39
6627	30.43
6628	27.39
6629	1308.12
6630	1552.40
6631	393.09
6632	187.65
6633	209.99
6634	279.98
6635	264.76
6636	206.94
6637	240.42
6638	164.34
6639	179.55
6640	197.81
6641	232.97
6642	284.10
6643	354.19
6644	577.40
6645	201.25
6646	197.73
6647	48.69
6648	39.83
6649	37.18
6650	23.89
6651	26.55
6652	23.89
6653	1482.53
6654	1639.25
6655	871.58
6656	679.67
6657	588.68
6658	571.12
6659	509.46
6660	430.55
6661	477.80
6662	489.34
6663	590.43
6664	740.76
6665	849.59
6666	816.41
6667	887.14
6668	1278.87
6669	658.38
6670	641.71
6671	42.49
6672	59.01
6673	76.34
6674	70.60
6675	84.45
6676	88.02
6677	2739.92
6678	2524.51
6679	1583.89
6680	1301.08
6681	974.76
6682	897.39
6683	785.63
6684	785.20
6685	790.50
6686	808.18
6687	926.32
6688	1281.46
6689	1440.16
6690	1445.57
6691	1425.05
6692	1725.30
6693	1041.48
6694	990.47
6695	98.85
6696	110.18
6697	114.81
6698	103.46
6699	110.98
6700	112.02
6701	3374.38
6702	2775.11
6703	1806.48
6704	1437.21
6705	1244.68
6706	1165.60
6707	1046.69
6708	953.51
6709	1017.79
6710	1039.68
6711	1023.58
6712	1246.05
6713	1373.66
6714	1363.30
6715	1383.82
6716	1800.67
6717	1157.75
6718	1159.47
6719	97.09
6720	109.78
6721	114.72
6722	104.08
6723	110.57
6724	112.41
6725	3544.65
6726	2834.07
6727	1813.63
6728	1061.82
6729	686.15
6730	590.19
6731	410.54
6732	347.24
6733	408.45
6734	399.19
6735	536.14
6736	855.20
6737	1109.13
6738	1077.79
6739	1101.69
6740	1490.57
6741	854.75
6742	858.21
6743	58.16
6744	89.91
6745	98.14
6746	89.97
6747	101.19
6748	103.50
6749	3142.93
6750	2619.85
6751	1388.82
6752	805.78
6753	586.95
6754	520.41
6755	346.67
6756	273.19
6757	313.02
6758	295.45
6759	383.02
6760	593.03
6761	807.99
6762	816.35
6763	936.46
6764	1315.26
6765	691.20
6766	712.52
6767	55.24
6768	73.68
6769	81.78
6770	74.93
6771	85.26
6772	88.62
6773	2761.09
6774	2355.76
6775	1505.58
6776	1220.83
6777	1059.49
6778	978.06
6779	864.57
6780	761.15
6781	750.35
6782	495.96
6783	579.66
6784	897.85
6785	1165.91
6786	1104.04
6787	1104.28
6788	1534.96
6789	892.49
6790	895.90
6791	58.58
6792	84.44
6793	93.43
6794	86.95
6795	96.56
6796	100.10
6797	3125.18
6798	2541.32
6799	1629.25
6800	1328.68
6801	1137.08
6802	1023.69
6803	895.49
6804	793.02
6805	832.22
6806	845.28
6807	1031.89
6808	1234.46
6809	1341.38
6810	1236.33
6811	1125.69
6812	1586.59
6813	956.08
6814	943.07
6815	59.74
6816	98.77
6817	107.70
6818	97.71
6819	108.08
6820	109.61
6821	3276.74
6822	2708.31
6823	1226.46
6824	594.24
6825	538.79
6826	470.66
6827	384.30
6828	372.33
6829	397.99
6830	356.09
6831	565.89
6832	810.93
6833	1096.70
6834	1088.90
6835	1152.56
6836	1505.24
6837	867.33
6838	860.74
6839	70.79
6840	98.95
6841	105.49
6842	95.08
6843	105.28
6844	105.97
6845	3062.44
6846	2628.29
6847	1417.67
6848	857.89
6849	532.12
6850	510.96
6851	435.53
6852	337.84
6853	379.10
6854	312.07
6855	416.82
6856	771.30
6857	995.58
6858	1050.10
6859	1098.57
6860	1454.18
6861	827.04
6862	837.57
6863	66.13
6864	83.10
6865	93.65
6866	86.82
6867	96.96
6868	100.19
6869	3076.43
6870	2557.33
6871	1392.07
6872	793.64
6873	566.83
6874	521.98
6875	601.64
6876	575.90
6877	445.86
6878	384.34
6879	452.45
6880	647.85
6881	776.01
6882	792.74
6883	927.00
6884	1275.67
6885	636.59
6886	688.57
6887	47.82
6888	64.10
6889	77.86
6890	76.01
6891	88.93
6892	94.28
6893	3007.52
6894	2507.25
6895	1497.61
6896	592.95
6897	276.95
6898	270.59
6899	259.48
6900	212.69
6901	255.59
6902	235.86
6903	308.96
6904	518.16
6905	689.21
6906	715.07
6907	862.56
6908	1309.28
6909	715.94
6910	745.86
6911	51.28
6912	90.43
6913	104.32
6914	96.49
6915	104.23
6916	107.45
6917	3331.41
6918	2723.20
6919	1155.46
6920	536.61
6921	299.16
6922	307.38
6923	299.79
6924	239.45
6925	275.44
6926	234.86
6927	327.07
6928	483.80
6929	649.15
6930	655.42
6931	767.32
6932	1156.53
6933	535.26
6934	508.50
6935	49.17
6936	44.31
6937	49.29
6938	47.58
6939	56.99
6940	59.71
6941	1737.18
6942	1858.25
6943	864.36
6944	523.02
6945	360.22
6946	347.66
6947	313.52
6948	255.46
6949	287.48
6950	247.08
6951	375.79
6952	568.59
6953	650.64
6954	620.60
6955	770.46
6956	1202.09
6957	611.42
6958	629.80
6959	47.34
6960	70.91
6961	83.32
6962	75.56
6963	83.23
6964	85.29
6965	2548.81
6966	2296.59
6967	1032.41
6968	415.12
6969	268.44
6970	285.68
6971	291.94
6972	244.28
6973	284.93
6974	251.34
6975	350.95
6976	512.34
6977	762.79
6978	808.02
6979	904.21
6980	1346.15
6981	795.12
6982	824.51
6983	66.20
6984	100.47
6985	113.84
6986	109.31
6987	120.59
6988	124.01
6989	3589.02
6990	2887.60
6991	1337.20
6992	791.99
6993	378.94
6994	447.24
6995	410.12
6996	295.02
6997	337.99
6998	319.55
6999	405.82
7000	568.55
7001	780.06
7002	851.31
7003	965.39
7004	1352.18
7005	759.16
7006	766.59
7007	52.16
7008	94.22
7009	110.00
7010	99.85
7011	111.76
7012	115.40
7013	3046.65
7014	2791.29
7015	1366.54
7016	941.99
7017	948.12
7018	768.22
7019	672.51
7020	484.48
7021	438.28
7022	333.57
7023	402.59
7024	802.41
7025	1078.35
7026	1237.50
7027	1346.74
7028	1701.63
7029	1066.34
7030	1059.89
7031	116.93
7032	117.42
7033	121.50
7034	110.77
7035	118.52
7036	118.63
7037	3400.51
7038	2821.77
7039	1691.84
7040	1172.06
7041	902.00
7042	815.91
7043	672.82
7044	447.34
7045	520.09
7046	548.36
7047	566.79
7048	812.37
7049	975.05
7050	975.81
7051	1146.83
7052	1488.47
7053	823.22
7054	819.11
7055	71.03
7056	93.83
7057	100.69
7058	91.09
7059	99.01
7060	99.17
7061	2881.06
7062	2470.44
7063	1400.29
7064	899.55
7065	670.57
7066	630.65
7067	532.22
7068	437.64
7069	654.33
7070	790.87
7071	899.71
7072	1050.09
7073	1138.85
7074	1035.38
7075	1062.54
7076	1402.40
7077	751.75
7078	756.11
7079	55.33
7080	86.72
7081	97.36
7082	86.24
7083	93.33
7084	95.57
7085	2759.33
7086	2422.06
7087	1151.06
7088	723.41
7089	548.77
7090	528.03
7091	458.67
7092	366.99
7093	412.57
7094	386.91
7095	537.02
7096	813.92
7097	975.68
7098	926.64
7099	995.26
7100	1339.44
7101	696.88
7102	696.88
7103	52.83
7104	79.46
7105	88.94
7106	76.66
7107	86.55
7108	88.41
7109	2555.51
7110	2351.68
7111	892.45
7112	375.92
7113	298.33
7114	337.85
7115	319.27
7116	259.81
7117	326.09
7118	335.14
7119	480.11
7120	735.15
7121	882.49
7122	863.40
7123	946.95
7124	1291.54
7125	674.52
7126	670.26
7127	64.47
7128	76.98
7129	83.36
7130	72.00
7131	78.61
7132	80.79
7133	2277.81
7134	2112.27
7135	1030.10
7136	678.03
7137	415.13
7138	502.36
7139	470.71
7140	327.48
7141	351.03
7142	337.38
7143	430.24
7144	657.18
7145	827.43
7146	822.75
7147	918.39
7148	1288.35
7149	688.50
7150	735.35
7151	55.58
7152	98.36
7153	109.90
7154	99.33
7155	109.25
7156	116.83
7157	3396.74
7158	2840.61
7159	1432.14
7160	804.66
7161	436.73
7162	646.74
7163	671.47
7164	587.73
7165	640.72
7166	649.10
7167	995.98
7168	1285.96
7169	1389.30
7170	1301.93
7171	1361.09
7172	1770.34
7173	1140.75
7174	1139.15
7175	117.83
7176	144.58
7177	150.50
7178	138.27
7179	152.41
7180	153.90
7181	4148.49
7182	3436.40
7183	2126.27
7184	1880.91
7185	1625.95
7186	1562.76
7187	1414.73
7188	1287.93
7189	1253.44
7190	1199.43
7191	1285.93
7192	1525.58
7193	1582.66
7194	1547.86
7195	1416.45
7196	1841.71
7197	1143.41
7198	1090.55
7199	95.64
7200	91.65
7201	96.49
7202	88.65
7203	96.57
7204	97.52
7205	3048.44
7206	2554.22
7207	1746.90
7208	1387.41
7209	1149.42
7210	1028.51
7211	908.98
7212	835.61
7213	887.35
7214	608.37
7215	692.43
7216	1101.35
7217	1215.54
7218	1163.99
7219	1165.30
7220	1622.72
7221	988.67
7222	1059.48
7223	65.11
7224	97.74
7225	104.62
7226	94.67
7227	102.03
7228	103.15
7229	3161.81
7230	2687.92
7231	1788.20
7232	1488.78
7233	956.21
7234	661.76
7235	507.15
7236	409.92
7237	437.49
7238	402.45
7239	533.03
7240	953.69
7241	1251.71
7242	1217.00
7243	1271.27
7244	1638.35
7245	1058.73
7246	1075.00
7247	98.80
7248	117.77
7249	122.64
7250	114.68
7251	126.29
7252	128.99
7253	3791.28
7254	3032.78
7255	2073.84
7256	1806.31
7257	1733.45
7258	1555.61
7259	1081.05
7260	1129.33
7261	1003.10
7262	962.27
7263	1183.50
7264	1626.81
7265	1759.59
7266	1668.58
7267	1630.45
7268	2056.29
7269	1367.78
7270	1334.51
7271	111.26
7272	130.02
7273	138.15
7274	132.26
7275	143.66
7276	145.49
7277	4354.42
7278	3463.10
7279	2396.94
7280	1721.63
7281	1335.63
7282	1184.71
7283	1007.73
7284	836.17
7285	887.09
7286	974.60
7287	1437.50
7288	1702.27
7289	1796.38
7290	1716.16
7291	1645.28
7292	2061.16
7293	1388.95
7294	1367.47
7295	109.60
7296	124.31
7297	128.21
7298	116.93
7299	124.69
7300	126.03
7301	3836.41
7302	3128.19
7303	2140.01
7304	1504.65
7305	1181.92
7306	1038.16
7307	944.27
7308	1141.96
7309	1300.46
7310	1083.36
7311	1338.24
7312	1594.98
7313	1671.24
7314	1554.76
7315	1461.18
7316	1892.98
7317	1247.98
7318	1250.93
7319	99.01
7320	111.31
7321	120.04
7322	114.96
7323	123.18
7324	125.07
7325	3842.09
7326	3003.53
7327	2006.41
7328	1381.66
7329	1052.30
7330	919.89
7331	771.46
7332	548.87
7333	642.62
7334	788.48
7335	1101.17
7336	1445.73
7337	1548.65
7338	1405.39
7339	1301.75
7340	1842.23
7341	1296.92
7342	1363.05
7343	109.73
7344	144.81
7345	149.84
7346	135.66
7347	143.86
7348	143.99
7349	4197.99
7350	3454.06
7351	2386.82
7352	1692.95
7353	1150.53
7354	962.59
7355	816.12
7356	708.72
7357	655.82
7358	608.19
7359	649.36
7360	1200.77
7361	1424.38
7362	1391.15
7363	1281.35
7364	1692.46
7365	1033.73
7366	1028.17
7367	83.15
7368	103.73
7369	112.79
7370	105.72
7371	120.00
7372	126.48
7373	3768.55
7374	3074.39
7375	2129.18
7376	1436.04
7377	1093.02
7378	1290.59
7379	1262.14
7380	1159.47
7381	1241.55
7382	1312.06
7383	1336.40
7384	1464.53
7385	1513.58
7386	1483.16
7387	1495.66
7388	1936.86
7389	1278.53
7390	1278.94
7391	103.54
7392	109.54
7393	117.53
7394	112.32
7395	119.56
7396	121.42
7397	3879.09
7398	3054.59
7399	2068.30
7400	1087.07
7401	602.11
7402	555.84
7403	524.56
7404	413.32
7405	422.38
7406	448.55
7407	594.23
7408	903.03
7409	1174.93
7410	1141.70
7411	1233.77
7412	1629.22
7413	1069.35
7414	1189.50
7415	99.98
7416	120.35
7417	126.20
7418	119.81
7419	130.45
7420	133.42
7421	4001.33
7422	3223.29
7423	2217.02
7424	1534.74
7425	995.71
7426	914.43
7427	903.77
7428	826.63
7429	874.02
7430	951.51
7431	1225.99
7432	1537.57
7433	1714.86
7434	1668.31
7435	1630.83
7436	2090.68
7437	1467.19
7438	1525.59
7439	125.31
7440	141.65
7441	146.52
7442	135.76
7443	144.49
7444	146.18
7445	4323.51
7446	3402.30
7447	2398.72
7448	2069.67
7449	1879.52
7450	1738.93
7451	1541.88
7452	1104.44
7453	1387.95
7454	1553.69
7455	1745.45
7456	1870.25
7457	1916.78
7458	1776.23
7459	1685.44
7460	2122.16
7461	1482.04
7462	1482.21
7463	115.92
7464	132.33
7465	137.47
7466	125.66
7467	132.27
7468	131.96
7469	4021.56
7470	3276.39
7471	2315.15
7472	1674.77
7473	1308.42
7474	1112.98
7475	956.57
7476	826.12
7477	892.04
7478	946.02
7479	1139.83
7480	1532.51
7481	1691.62
7482	1574.47
7483	1479.46
7484	1904.28
7485	1244.58
7486	1242.28
7487	96.87
7488	118.84
7489	125.28
7490	115.52
7491	124.42
7492	124.39
7493	3693.09
7494	3051.31
7495	2132.26
7496	1539.01
7497	1226.42
7498	1098.72
7499	971.06
7500	863.81
7501	947.33
7502	1018.99
7503	1357.90
7504	1612.04
7505	1664.55
7506	1533.17
7507	1505.68
7508	1992.05
7509	1356.94
7510	1364.43
7511	115.67
7512	135.78
7513	140.16
7514	126.35
7515	134.65
7516	134.59
7517	3922.01
7518	3230.16
7519	2314.98
7520	1926.15
7521	1225.20
7522	980.23
7523	858.86
7524	1009.70
7525	679.44
7526	746.34
7527	1002.97
7528	1574.50
7529	1728.10
7530	1746.46
7531	1654.71
7532	2113.98
7533	1472.81
7534	1466.89
7535	127.83
7536	129.92
7537	132.53
7538	120.00
7539	127.11
7540	127.24
7541	3887.45
7542	3162.09
7543	2284.14
7544	1690.13
7545	1296.53
7546	1073.06
7547	782.55
7548	696.36
7549	788.82
7550	871.04
7551	1041.78
7552	1262.25
7553	1320.07
7554	1296.76
7555	1321.28
7556	1801.35
7557	1163.01
7558	1146.35
7559	92.78
7560	117.24
7561	122.46
7562	112.21
7563	120.76
7564	121.46
7565	3734.63
7566	3048.73
7567	2095.04
7568	1516.26
7569	1108.37
7570	790.43
7571	629.59
7572	489.19
7573	519.87
7574	507.89
7575	632.25
7576	937.59
7577	1225.26
7578	1253.56
7579	1381.61
7580	1736.05
7581	1139.81
7582	1181.92
7583	106.98
7584	124.91
7585	133.18
7586	126.36
7587	137.77
7588	139.97
7589	4092.07
7590	3293.91
7591	2368.95
7592	1683.93
7593	927.15
7594	959.64
7595	945.20
7596	931.53
7597	887.98
7598	1013.95
7599	1348.99
7600	1618.29
7601	1721.02
7602	1623.81
7603	1581.22
7604	2019.09
7605	1408.21
7606	1438.14
7607	129.56
7608	139.95
7609	145.76
7610	135.40
7611	144.14
7612	147.07
7613	4304.65
7614	3427.00
7615	2461.16
7616	2156.56
7617	1726.40
7618	1843.21
7619	1761.39
7620	1631.64
7621	1690.97
7622	1673.56
7623	1747.69
7624	1838.74
7625	1824.70
7626	1660.68
7627	1557.65
7628	1978.14
7629	1323.54
7630	1345.22
7631	109.66
7632	131.50
7633	137.95
7634	126.42
7635	134.82
7636	135.68
7637	4089.76
7638	3300.75
7639	2380.20
7640	1837.64
7641	1524.69
7642	1348.69
7643	1151.88
7644	1053.82
7645	1403.70
7646	1567.42
7647	1722.21
7648	1773.41
7649	1793.27
7650	1649.94
7651	1540.72
7652	1967.55
7653	1317.29
7654	1319.90
7655	103.19
7656	118.55
7657	123.73
7658	113.59
7659	120.31
7660	119.43
7661	3684.57
7662	2976.70
7663	2065.67
7664	1280.92
7665	880.15
7666	971.73
7667	894.07
7668	746.74
7669	675.81
7670	709.10
7671	1054.08
7672	1414.55
7673	1516.30
7674	1385.39
7675	1307.21
7676	1754.04
7677	1115.01
7678	1133.61
7679	86.83
7680	112.52
7681	120.56
7682	115.21
7683	127.23
7684	129.59
7685	3894.01
7686	3211.28
7687	2359.64
7688	1853.16
7689	1269.73
7690	922.70
7691	804.03
7692	693.04
7693	626.87
7694	651.65
7695	935.06
7696	1548.07
7697	1762.32
7698	1820.09
7699	1721.61
7700	2139.70
7701	1501.06
7702	1586.70
7703	143.05
7704	157.32
7705	170.85
7706	166.55
7707	176.98
7708	180.55
7709	4800.00
7710	4216.12
7711	3170.96
7712	2343.97
7713	1640.19
7714	1343.71
7715	1226.32
7716	1055.22
7717	947.69
7718	942.01
7719	1186.17
7720	1723.63
7721	1886.91
7722	1861.80
7723	1890.33
7724	2280.30
7725	1614.09
7726	1653.73
7727	139.74
7728	158.84
7729	163.44
7730	150.85
7731	162.91
7732	166.33
7733	4656.11
7734	3811.83
7735	2816.50
7736	2618.70
7737	2517.63
7738	2399.64
7739	2193.00
7740	1478.84
7741	1271.67
7742	1078.26
7743	1633.81
7744	2073.46
7745	2155.56
7746	2016.41
7747	1944.94
7748	2376.08
7749	1710.36
7750	1794.01
7751	157.13
7752	175.37
7753	183.99
7754	172.22
7755	179.32
7756	180.54
7757	4800.00
7758	4416.33
7759	3317.90
7760	2120.49
7761	1331.36
7762	1334.99
7763	1222.20
7764	1003.73
7765	929.21
7766	840.12
7767	1120.07
7768	1618.74
7769	1948.44
7770	1978.13
7771	2002.51
7772	2474.82
7773	1853.81
7774	1962.44
7775	180.76
7776	177.44
7777	187.87
7778	180.01
7779	187.39
7780	190.98
7781	4800.00
7782	4602.68
7783	3471.65
7784	2429.42
7785	1546.53
7786	1436.71
7787	1303.86
7788	1152.45
7789	1015.73
7790	941.55
7791	1284.17
7792	1781.95
7793	2061.05
7794	2048.18
7795	2017.39
7796	2476.77
7797	1912.62
7798	2054.40
7799	171.90
7800	189.25
7801	195.60
7802	187.79
7803	198.01
7804	200.94
7805	4800.00
7806	4743.19
7807	3571.45
7808	2569.78
7809	1865.75
7810	1755.42
7811	1593.22
7812	1460.59
7813	1689.80
7814	1880.98
7815	2191.50
7816	2380.79
7817	2416.89
7818	2268.33
7819	2170.77
7820	2564.87
7821	1909.04
7822	1964.28
7823	158.78
7824	172.25
7825	178.20
7826	169.57
7827	177.01
7828	176.65
7829	4800.00
7830	4187.08
7831	3120.93
7832	2874.62
7833	2687.85
7834	2585.75
7835	2425.77
7836	2282.35
7837	2322.66
7838	2320.06
7839	2430.58
7840	2435.28
7841	2422.11
7842	2270.34
7843	2143.16
7844	2503.31
7845	1800.58
7846	1811.25
7847	142.51
7848	151.27
7849	154.45
7850	143.32
7851	150.81
7852	150.48
7853	4569.14
7854	3678.25
7855	2700.16
7856	2415.31
7857	2084.02
7858	1966.30
7859	1807.33
7860	1672.02
7861	1682.06
7862	1506.14
7863	1716.68
7864	1960.83
7865	1949.77
7866	1898.86
7867	1772.65
7868	2244.39
7869	1640.48
7870	1696.25
7871	135.19
7872	152.22
7873	157.84
7874	145.91
7875	153.75
7876	154.07
7877	4633.83
7878	3793.99
7879	2881.57
7880	2441.43
7881	1994.53
7882	1721.55
7883	1503.11
7884	1336.92
7885	1374.93
7886	1501.00
7887	1679.85
7888	1844.29
7889	1943.55
7890	1955.56
7891	2006.27
7892	2433.04
7893	1779.46
7894	1813.63
7895	151.52
7896	161.54
7897	166.90
7898	157.48
7899	167.69
7900	170.16
7901	4800.00
7902	3990.29
7903	2951.92
7904	2548.23
7905	2158.22
7906	1921.42
7907	1687.17
7908	1508.46
7909	1530.94
7910	1307.41
7911	1737.13
7912	2054.24
7913	2173.77
7914	2101.01
7915	2080.58
7916	2517.47
7917	1886.34
7918	1958.28
7919	157.13
7920	178.93
7921	185.72
7922	175.13
7923	186.54
7924	189.52
7925	4800.00
7926	4464.18
7927	3300.70
7928	2946.60
7929	2546.59
7930	2312.84
7931	2058.96
7932	1811.61
7933	1838.53
7934	1900.60
7935	2240.43
7936	2417.05
7937	2498.72
7938	2397.60
7939	2351.70
7940	2730.64
7941	2099.16
7942	2196.59
7943	181.23
7944	194.02
7945	199.80
7946	187.58
7947	199.60
7948	200.80
7949	4800.00
7950	4776.61
7951	3589.18
7952	3354.00
7953	3132.65
7954	3000.55
7955	2838.92
7956	2649.05
7957	2660.17
7958	2607.21
7959	2729.50
7960	2758.65
7961	2724.28
7962	2559.45
7963	2474.59
7964	2842.64
7965	2155.86
7966	2209.04
7967	179.29
7968	181.76
7969	191.66
7970	184.64
7971	193.64
7972	194.36
7973	4800.00
7974	4702.06
7975	3488.54
7976	3117.91
7977	2757.35
7978	2521.39
7979	2356.79
7980	2510.43
7981	2617.01
7982	2604.92
7983	2722.54
7984	2752.25
7985	2721.08
7986	2536.20
7987	2402.61
7988	2771.69
7989	2091.23
7990	2120.58
7991	159.41
7992	179.76
7993	183.34
7994	170.81
7995	179.60
7996	179.60
7997	4800.00
7998	4243.60
7999	3117.84
8000	2731.18
8001	2360.74
8002	2216.80
8003	2308.42
8004	2244.30
8005	2305.30
8006	2291.49
8007	2412.83
8008	2462.78
8009	2458.66
8010	2270.92
8011	2146.03
8012	2498.32
8013	1801.62
8014	1801.91
8015	148.82
8016	169.65
8017	173.99
8018	156.93
8019	166.66
8020	165.18
8021	4642.07
8022	3895.05
8023	2865.17
8024	2608.40
8025	2293.06
8026	2181.42
8027	1935.93
8028	1442.32
8029	1374.64
8030	1434.85
8031	1793.35
8032	2139.50
8033	2211.57
8034	2192.30
8035	2075.66
8036	2471.16
8037	1767.63
8038	1744.39
8039	156.04
8040	164.06
8041	167.55
8042	151.62
8043	161.04
8044	159.16
8045	4493.97
8046	3765.95
8047	2782.06
8048	2359.51
8049	2011.25
8050	2121.35
8051	2025.38
8052	1793.15
8053	1991.92
8054	2006.00
8055	1945.17
8056	1969.35
8057	1965.87
8058	1884.08
8059	1876.44
8060	2263.47
8061	1546.18
8062	1513.16
8063	135.92
8064	132.90
8065	137.56
8066	125.85
8067	135.35
8068	139.54
8069	4169.60
8070	3398.62
8071	2476.75
8072	2216.82
8073	2194.02
8074	2097.16
8075	1666.85
8076	1402.86
8077	1164.02
8078	1423.35
8079	1946.76
8080	2116.13
8081	2182.40
8082	2073.77
8083	1948.84
8084	2358.36
8085	1749.38
8086	1780.10
8087	143.80
8088	156.93
8089	162.44
8090	151.02
8091	156.86
8092	159.11
8093	4641.59
8094	3729.13
8095	2739.05
8096	2363.60
8097	1674.14
8098	1367.79
8099	1217.84
8100	1255.53
8101	1450.13
8102	1544.58
8103	1880.34
8104	2032.95
8105	2061.91
8106	1909.51
8107	1827.16
8108	2259.01
8109	1607.78
8110	1630.81
8111	141.63
8112	147.56
8113	151.96
8114	141.36
8115	147.84
8116	147.50
8117	4421.36
8118	3499.37
8119	2527.75
8120	2325.32
8121	2184.18
8122	2070.34
8123	1924.32
8124	1798.22
8125	1846.60
8126	1846.14
8127	1940.90
8128	1964.68
8129	1948.51
8130	1789.76
8131	1678.91
8132	2088.25
8133	1443.46
8134	1443.87
8135	110.79
8136	124.38
8137	129.77
8138	123.33
8139	135.91
8140	135.78
8141	4095.61
8142	3271.74
8143	2382.57
8144	1991.22
8145	1207.92
8146	1074.46
8147	1154.82
8148	1159.24
8149	1528.62
8150	1687.48
8151	1835.08
8152	1882.95
8153	1878.13
8154	1722.74
8155	1622.62
8156	2051.90
8157	1397.98
8158	1384.57
8159	108.49
8160	137.46
8161	140.37
8162	125.22
8163	133.43
8164	131.60
8165	3714.58
8166	3085.39
8167	2147.23
8168	1851.95
8169	1101.12
8170	1029.62
8171	940.03
8172	759.78
8173	824.58
8174	992.75
8175	1475.88
8176	1718.73
8177	1786.51
8178	1693.69
8179	1669.38
8180	2078.19
8181	1400.50
8182	1396.65
8183	136.65
8184	159.47
8185	163.86
8186	145.69
8187	153.29
8188	152.38
8189	4214.31
8190	3549.94
8191	2597.61
8192	2311.65
8193	1763.36
8194	1579.25
8195	1411.76
8196	1543.19
8197	1498.13
8198	1462.79
8199	1793.47
8200	2111.35
8201	2152.61
8202	2125.95
8203	2011.75
8204	2395.63
8205	1698.61
8206	1744.19
8207	168.48
8208	179.14
8209	192.05
8210	184.04
8211	195.55
8212	196.72
8213	4800.00
8214	4586.06
8215	3436.96
8216	3173.35
8217	2696.19
8218	2403.39
8219	2135.29
8220	1906.36
8221	2093.27
8222	2166.19
8223	2321.52
8224	2419.38
8225	2411.68
8226	2348.85
8227	2363.96
8228	2715.40
8229	1991.71
8230	2004.45
8231	168.26
8232	174.97
8233	179.97
8234	169.09
8235	179.64
8236	181.54
8237	4800.00
8238	4307.96
8239	3202.83
8240	2945.10
8241	2529.58
8242	2248.81
8243	1776.85
8244	1570.06
8245	1826.75
8246	1983.38
8247	2307.55
8248	2440.34
8249	2493.04
8250	2380.16
8251	2309.83
8252	2710.75
8253	2045.93
8254	2132.14
8255	173.99
8256	181.86
8257	189.10
8258	180.52
8259	188.67
8260	188.22
8261	4800.00
8262	4509.86
8263	3356.32
8264	3144.31
8265	3006.80
8266	2889.22
8267	2689.53
8268	2517.59
8269	2529.54
8270	2521.83
8271	2604.86
8272	2598.27
8273	2566.62
8274	2386.22
8275	2258.97
8276	2619.79
8277	1956.64
8278	2001.07
8279	157.27
8280	173.53
8281	179.57
8282	166.68
8283	176.82
8284	178.42
8285	4800.00
8286	4304.26
8287	3209.43
8288	3009.80
8289	2684.81
8290	2774.23
8291	2657.13
8292	2514.45
8293	2578.91
8294	2552.75
8295	2633.30
8296	2651.88
8297	2684.60
8298	2545.54
8299	2447.52
8300	2829.92
8301	2139.25
8302	2183.48
8303	178.29
8304	176.89
8305	183.10
8306	175.13
8307	183.46
8308	185.39
8309	4800.00
8310	4535.12
8311	3411.77
8312	3196.73
8313	3048.51
8314	2955.85
8315	2748.62
8316	2307.11
8317	2263.65
8318	2354.78
8319	2634.11
8320	2720.12
8321	2710.66
8322	2569.09
8323	2478.17
8324	2842.92
8325	2198.87
8326	2302.17
8327	167.90
8328	200.87
8329	204.42
8330	190.34
8331	200.62
8332	201.30
8333	4800.00
8334	4780.02
8335	3530.38
8336	3299.30
8337	3144.98
8338	3091.04
8339	2942.47
8340	2788.43
8341	2851.01
8342	2810.81
8343	2892.72
8344	2917.02
8345	2936.37
8346	2784.93
8347	2692.45
8348	3063.92
8349	2415.89
8350	2577.09
8351	215.12
8352	222.80
8353	226.72
8354	210.96
8355	218.48
8356	214.85
8357	4800.00
8358	4800.00
8359	3886.24
8360	3593.95
8361	2949.46
8362	2675.85
8363	2439.52
8364	2193.95
8365	1989.93
8366	1915.82
8367	2449.51
8368	2826.82
8369	2850.12
8370	2855.50
8371	2745.05
8372	3028.35
8373	2286.95
8374	2328.80
8375	191.90
8376	191.13
8377	197.99
8378	186.18
8379	194.65
8380	198.62
8381	4800.00
8382	4800.00
8383	3766.87
8384	3450.59
8385	2895.78
8386	2351.98
8387	2037.60
8388	1997.77
8389	2170.71
8390	1799.16
8391	2339.55
8392	2671.10
8393	2723.26
8394	2654.72
8395	2590.36
8396	2905.28
8397	2236.94
8398	2313.12
8399	179.08
8400	187.90
8401	194.62
8402	187.67
8403	195.97
8404	197.24
8405	4800.00
8406	4800.00
8407	3649.85
8408	3533.87
8409	3405.40
8410	3290.69
8411	3148.96
8412	2980.29
8413	3017.03
8414	3030.28
8415	3056.98
8416	3036.06
8417	2993.31
8418	2864.04
8419	2783.48
8420	3151.24
8421	2497.07
8422	2523.62
8423	188.74
8424	205.19
8425	210.84
8426	198.39
8427	204.34
8428	203.83
8429	4800.00
8430	4800.00
8431	3662.98
8432	3456.32
8433	3272.48
8434	3129.57
8435	2913.02
8436	2711.36
8437	2753.09
8438	2721.33
8439	2795.22
8440	2795.03
8441	2749.08
8442	2570.14
8443	2459.47
8444	2815.11
8445	2121.97
8446	2143.82
8447	163.47
8448	167.45
8449	174.67
8450	166.03
8451	175.00
8452	176.92
8453	4800.00
8454	4317.58
8455	3240.01
8456	2993.98
8457	2578.45
8458	2364.06
8459	2157.57
8460	1980.88
8461	2043.65
8462	2145.62
8463	2446.86
8464	2519.67
8465	2500.12
8466	2343.98
8467	2260.79
8468	2659.57
8469	1998.10
8470	2038.08
8471	158.29
8472	179.63
8473	181.60
8474	168.37
8475	177.13
8476	175.76
8477	4800.00
8478	4219.88
8479	3150.67
8480	3031.22
8481	2957.34
8482	2880.15
8483	2712.99
8484	2529.97
8485	2610.63
8486	2628.91
8487	2733.39
8488	2788.82
8489	2841.18
8490	2682.03
8491	2602.07
8492	2988.78
8493	2316.55
8494	2431.48
8495	197.41
8496	218.97
8497	224.25
8498	204.89
8499	214.71
8500	216.25
8501	4800.00
8502	4800.00
8503	3896.77
8504	3735.79
8505	3495.41
8506	2842.66
8507	2445.07
8508	2182.27
8509	2235.52
8510	2503.16
8511	2859.68
8512	2937.99
8513	2946.88
8514	2806.37
8515	2765.67
8516	3089.47
8517	2373.19
8518	2408.15
8519	199.31
8520	196.82
8521	201.87
8522	191.59
8523	198.67
8524	193.61
8525	4800.00
8526	4699.60
8527	3508.36
8528	3224.59
8529	2659.01
8530	2648.25
8531	2507.55
8532	2340.90
8533	2333.85
8534	2115.54
8535	2227.47
8536	2420.68
8537	2368.13
8538	2276.67
8539	2100.55
8540	2486.11
8541	1792.01
8542	1752.40
8543	136.62
8544	158.31
8545	160.20
8546	142.45
8547	150.36
8548	148.83
8549	4284.11
8550	3586.07
8551	2651.10
8552	2355.35
8553	1977.89
8554	1810.30
8555	1779.88
8556	1275.67
8557	1368.75
8558	1539.51
8559	1658.83
8560	1743.19
8561	1771.20
8562	1706.93
8563	1770.29
8564	2213.12
8565	1599.33
8566	1677.17
8567	152.05
8568	167.81
8569	177.02
8570	165.15
8571	175.55
8572	175.81
8573	4800.00
8574	4164.14
8575	3097.65
8576	2925.84
8577	2846.56
8578	2809.86
8579	2697.82
8580	2541.70
8581	2589.13
8582	2545.98
8583	2669.23
8584	2718.79
8585	2742.32
8586	2629.32
8587	2542.75
8588	2859.73
8589	2144.00
8590	2164.53
8591	181.79
8592	176.79
8593	180.12
8594	170.31
8595	178.96
8596	179.96
8597	4800.00
8598	4351.34
8599	3268.79
8600	2985.65
8601	1975.29
8602	1576.56
8603	1474.13
8604	1640.83
8605	1685.64
8606	1948.54
8607	2363.64
8608	2541.83
8609	2612.43
8610	2494.56
8611	2401.33
8612	2803.07
8613	2231.20
8614	2339.78
8615	183.49
8616	209.38
8617	213.54
8618	194.93
8619	198.54
8620	195.63
8621	4800.00
8622	4588.04
8623	3390.39
8624	3126.18
8625	2676.22
8626	2252.24
8627	2218.46
8628	2186.89
8629	2294.86
8630	2253.80
8631	2666.68
8632	2835.91
8633	2876.49
8634	2688.92
8635	2617.91
8636	2998.42
8637	2308.25
8638	2405.58
8639	199.23
8640	196.19
8641	202.38
8642	194.25
8643	206.19
8644	209.49
8645	4800.00
8646	4800.00
8647	3818.57
8648	3514.26
8649	2335.85
8650	1901.03
8651	2031.35
8652	2207.33
8653	2368.91
8654	2421.14
8655	2736.72
8656	2870.26
8657	2896.71
8658	2752.00
8659	2720.45
8660	3152.87
8661	2555.89
8662	2639.89
8663	197.63
8664	195.94
8665	187.94
8666	166.36
8667	167.91
8668	165.51
8669	4800.00
8670	3971.41
8671	2897.67
8672	2690.94
8673	2564.64
8674	2463.86
8675	2303.68
8676	1896.76
8677	1838.80
8678	1854.19
8679	2138.42
8680	2267.17
8681	2280.56
8682	2125.20
8683	2028.83
8684	2504.60
8685	1892.32
8686	1875.54
8687	148.72
8688	168.90
8689	177.91
8690	168.31
8691	179.75
8692	183.08
8693	4800.00
8694	4371.95
8695	3281.82
8696	3018.18
8697	2420.29
8698	2195.46
8699	1962.16
8700	1774.80
8701	1762.76
8702	1439.71
8703	1921.11
8704	2452.07
8705	2552.08
8706	2523.79
8707	2419.63
8708	2849.14
8709	2194.08
8710	2265.47
8711	185.70
8712	191.74
8713	197.86
8714	186.76
8715	197.36
8716	201.22
8717	4800.00
8718	4800.00
8719	3743.92
8720	3512.07
8721	2975.54
8722	2525.99
8723	1893.44
8724	1591.38
8725	1606.46
8726	1806.60
8727	2214.99
8728	2479.99
8729	2534.19
8730	2490.55
8731	2519.25
8732	2935.07
8733	2284.50
8734	2388.06
8735	187.64
8736	220.98
8737	225.20
8738	208.45
8739	217.22
8740	214.83
8741	4800.00
8742	4800.00
8743	3661.38
8744	3378.61
8745	2973.27
8746	2765.10
8747	2543.26
8748	2584.10
8749	2734.71
8750	2687.19
8751	2801.09
8752	2882.69
8753	2912.04
8754	2769.79
8755	2695.70
8756	2992.90
8757	2249.16
8758	2320.97
8760	204.86
