time [h]	Qevap [W]
0	298.44
1	330.07
2	431.28
3	604.91
4	743.40
5	4800.00
6	4800.00
7	4800.00
8	4800.00
9	4800.00
10	4742.87
11	4460.72
12	3983.60
13	4051.40
14	4011.24
15	4133.17
16	4134.33
17	4092.69
18	3858.27
19	3677.34
20	3916.24
21	3351.57
22	3630.38
23	274.65
24	270.77
25	269.92
26	248.76
27	252.86
28	276.92
29	4800.00
30	4800.00
31	4465.88
32	4206.96
33	3906.79
34	3753.78
35	3571.84
36	3029.31
37	2844.82
38	2837.09
39	3008.36
40	3092.43
41	3153.06
42	3063.03
43	2918.89
44	3204.78
45	4181.06
46	4227.49
47	198.10
48	214.04
49	220.64
50	205.94
51	209.76
52	212.39
53	4800.00
54	4800.00
55	3719.36
56	3585.01
57	3197.18
58	2878.79
59	2590.09
60	2121.58
61	2262.13
62	2335.71
63	2578.69
64	2874.02
65	3086.10
66	3115.69
67	3089.51
68	3457.26
69	2885.78
70	3003.31
71	235.37
72	253.69
73	264.10
74	255.09
75	256.89
76	249.02
77	4800.00
78	4800.00
79	4229.03
80	3978.66
81	3397.38
82	3218.59
83	3006.26
84	2848.49
85	2906.13
86	2957.11
87	3109.07
88	3127.44
89	3101.96
90	2964.26
91	2825.44
92	3123.90
93	3778.25
94	3850.67
95	207.58
96	213.54
97	219.65
98	204.90
99	211.56
100	214.00
101	4800.00
102	4531.16
103	3432.09
104	3396.35
105	3263.51
106	3182.34
107	3143.89
108	3041.03
109	3096.60
110	3041.34
111	3096.99
112	3043.16
113	2900.05
114	2707.43
115	2536.82
116	2859.88
117	2205.58
118	2237.71
119	177.56
120	197.47
121	194.83
122	176.66
123	187.62
124	183.81
125	4750.30
126	3951.01
127	2939.08
128	2862.33
129	2469.58
130	2099.85
131	2090.86
132	1892.48
133	1928.58
134	1976.49
135	2277.37
136	2587.44
137	2657.47
138	2673.16
139	2585.72
140	2946.45
141	2306.37
142	2414.16
143	211.46
144	201.60
145	210.65
146	207.87
147	219.36
148	220.55
149	4800.00
150	4620.96
151	3689.70
152	3491.72
153	2706.31
154	2092.70
155	1893.39
156	1910.51
157	1837.18
158	1928.85
159	2300.52
160	2554.18
161	2677.30
162	2627.99
163	2631.92
164	3036.66
165	2418.24
166	2545.46
167	207.34
168	223.30
169	232.88
170	228.45
171	244.92
172	249.99
173	4800.00
174	4800.00
175	4311.17
176	4195.00
177	3977.72
178	3825.31
179	3316.49
180	2399.94
181	2290.03
182	2184.17
183	2641.82
184	3104.81
185	3283.88
186	3306.94
187	3434.70
188	3874.91
189	3362.25
190	3482.74
191	269.64
192	268.99
193	274.75
194	262.79
195	269.00
196	318.55
197	4800.00
198	4800.00
199	4470.37
200	4163.97
201	3651.55
202	3413.88
203	3128.75
204	2561.89
205	2611.63
206	2782.51
207	3090.03
208	3259.49
209	3354.97
210	3286.12
211	3229.15
212	3637.32
213	3091.10
214	3263.80
215	254.06
216	272.66
217	278.04
218	269.56
219	288.74
220	384.90
221	4800.00
222	4800.00
223	4800.00
224	4554.18
225	4104.01
226	3493.43
227	3304.34
228	3387.78
229	3493.80
230	3397.51
231	3543.29
232	3666.08
233	3697.98
234	3575.23
235	3476.60
236	3784.52
237	3248.41
238	3395.54
239	268.57
240	267.71
241	273.76
242	264.04
243	285.21
244	364.21
245	4800.00
246	4800.00
247	4698.35
248	4466.08
249	4294.15
250	4062.02
251	3800.00
252	3603.24
253	3556.74
254	3404.22
255	3531.78
256	3804.32
257	3995.79
258	3903.66
259	3875.84
260	4335.21
261	3910.89
262	4028.88
263	314.16
264	340.85
265	374.32
266	528.30
267	697.35
268	816.31
269	4800.00
270	4800.00
271	4800.00
272	4800.00
273	4800.00
274	4651.94
275	4308.28
276	3812.90
277	3040.12
278	2714.31
279	3310.34
280	3979.16
281	4290.10
282	4229.94
283	4155.13
284	4462.50
285	3851.47
286	3896.84
287	300.83
288	316.99
289	325.19
290	391.10
291	541.18
292	687.74
293	4800.00
294	4800.00
295	4800.00
296	4800.00
297	4692.77
298	3712.40
299	3117.98
300	2721.67
301	2592.24
302	2627.49
303	3218.34
304	3971.79
305	4201.74
306	4232.01
307	4279.53
308	4683.07
309	4155.25
310	4191.89
311	336.80
312	343.92
313	393.83
314	601.63
315	880.10
316	1129.04
317	4800.00
318	4800.00
319	4800.00
320	4800.00
321	4800.00
322	4702.30
323	3917.04
324	3283.56
325	2984.33
326	2968.28
327	3411.87
328	4080.33
329	4383.04
330	4572.10
331	4754.52
332	4800.00
333	4424.76
334	4468.67
335	342.70
336	359.44
337	474.74
338	633.38
339	853.91
340	1007.88
341	4800.00
342	4800.00
343	4800.00
344	4800.00
345	4800.00
346	3824.78
347	3309.30
348	2868.05
349	2680.09
350	2630.85
351	3187.53
352	3956.91
353	4231.61
354	4203.73
355	4210.43
356	4547.59
357	4068.32
358	4129.24
359	311.72
360	314.38
361	307.42
362	292.77
363	393.68
364	468.40
365	4800.00
366	4800.00
367	4800.00
368	4800.00
369	4698.36
370	4610.93
371	4346.23
372	4064.83
373	3983.18
374	3828.49
375	3865.47
376	3875.33
377	3822.66
378	3544.63
379	3307.49
380	3653.46
381	3067.05
382	3070.97
383	232.28
384	231.08
385	233.73
386	227.56
387	243.89
388	239.54
389	4800.00
390	4800.00
391	3998.38
392	3784.44
393	3525.43
394	3343.58
395	2885.84
396	2607.03
397	2667.36
398	2743.30
399	3007.92
400	3069.85
401	3102.51
402	2968.94
403	2859.72
404	3226.22
405	2573.15
406	2612.07
407	214.58
408	227.68
409	235.26
410	220.45
411	229.90
412	238.65
413	4800.00
414	4800.00
415	3917.03
416	3725.99
417	3348.06
418	3033.23
419	2621.90
420	2297.16
421	2819.62
422	2802.82
423	2828.59
424	3135.03
425	3351.24
426	3293.26
427	3290.63
428	3727.89
429	3168.43
430	3238.21
431	258.75
432	268.61
433	274.66
434	263.40
435	271.58
436	287.90
437	4800.00
438	4800.00
439	4597.31
440	4261.08
441	3768.63
442	3134.26
443	2323.52
444	2192.06
445	2015.72
446	1915.14
447	2295.00
448	3064.76
449	3391.77
450	3363.34
451	3343.65
452	3723.89
453	3248.78
454	3451.96
455	283.79
456	296.80
457	301.01
458	278.66
459	300.36
460	387.55
461	4800.00
462	4800.00
463	4647.20
464	4369.95
465	3829.54
466	3864.61
467	3660.74
468	3064.83
469	3110.85
470	2903.60
471	3146.05
472	3437.03
473	3453.67
474	3383.80
475	3259.19
476	3549.86
477	3031.26
478	3132.48
479	246.47
480	242.04
481	248.99
482	241.70
483	246.42
484	251.35
485	4800.00
486	4800.00
487	4448.50
488	4099.71
489	3411.68
490	3153.83
491	2871.13
492	2266.35
493	1949.64
494	2531.78
495	2972.21
496	3170.96
497	3264.75
498	3222.68
499	3152.10
500	3482.01
501	2979.33
502	3105.61
503	243.12
504	256.69
505	258.56
506	250.56
507	266.82
508	283.38
509	4800.00
510	4800.00
511	4395.70
512	4337.35
513	4208.60
514	4056.46
515	3862.58
516	3681.74
517	3698.73
518	3610.70
519	3436.85
520	3469.96
521	3559.29
522	3536.65
523	3467.91
524	3755.39
525	3162.24
526	3218.66
527	249.46
528	253.08
529	257.91
530	251.37
531	264.56
532	283.18
533	4800.00
534	4800.00
535	4800.00
536	4782.06
537	4426.31
538	4031.35
539	3764.87
540	2780.25
541	2519.09
542	2492.94
543	3077.22
544	4149.77
545	4593.20
546	4506.31
547	4448.14
548	4800.00
549	4549.82
550	4739.64
551	369.16
552	411.33
553	691.32
554	1048.31
555	1341.38
556	1674.50
557	4800.00
558	4800.00
559	4800.00
560	4800.00
561	4800.00
562	4642.47
563	4133.26
564	4013.12
565	3343.79
566	3250.32
567	3726.02
568	4379.13
569	4767.66
570	4800.00
571	4800.00
572	4800.00
573	4671.27
574	4770.57
575	365.44
576	417.69
577	663.89
578	988.90
579	1289.62
580	1715.19
581	4800.00
582	4800.00
583	4800.00
584	4800.00
585	4800.00
586	4798.71
587	3952.60
588	3409.15
589	3120.62
590	2798.70
591	3210.09
592	4306.06
593	4668.25
594	4723.59
595	4800.00
596	4800.00
597	4800.00
598	4800.00
599	390.27
600	485.06
601	815.22
602	1166.40
603	1478.30
604	1696.23
605	4800.00
606	4800.00
607	4800.00
608	4800.00
609	4800.00
610	4800.00
611	4800.00
612	4800.00
613	4786.01
614	4559.90
615	4760.86
616	4800.00
617	4778.55
618	4551.16
619	4394.12
620	4595.55
621	4020.02
622	4154.06
623	304.79
624	298.48
625	301.07
626	317.70
627	464.83
628	586.97
629	4800.00
630	4800.00
631	4800.00
632	4800.00
633	4783.64
634	4687.17
635	4418.89
636	4096.02
637	4109.64
638	4148.46
639	4296.33
640	4485.23
641	4535.25
642	4518.99
643	4423.31
644	4700.82
645	4274.06
646	4360.60
647	334.06
648	350.18
649	430.91
650	632.84
651	876.99
652	1047.16
653	4800.00
654	4800.00
655	4800.00
656	4800.00
657	4800.00
658	4585.27
659	4377.15
660	4052.89
661	3912.23
662	4165.18
663	4318.93
664	4356.32
665	4294.06
666	4185.63
667	4121.71
668	4270.05
669	3605.18
670	3695.21
671	281.27
672	286.07
673	289.66
674	273.33
675	289.18
676	378.02
677	4800.00
678	4800.00
679	4800.00
680	4626.36
681	4360.31
682	4105.85
683	3516.22
684	3395.57
685	3365.85
686	3124.43
687	2909.61
688	2981.22
689	2932.64
690	2683.63
691	2603.49
692	2983.35
693	2333.17
694	2412.44
695	185.48
696	206.84
697	226.35
698	217.65
699	235.32
700	240.59
701	4800.00
702	4800.00
703	3902.83
704	3486.90
705	2700.44
706	1943.62
707	1617.75
708	1536.40
709	1788.77
710	1892.53
711	2160.30
712	2599.35
713	2832.78
714	2759.16
715	2739.93
716	3061.70
717	2259.41
718	2079.62
719	178.00
720	171.42
721	172.80
722	161.65
723	170.62
724	170.75
725	4559.76
726	3818.97
727	2832.72
728	2588.70
729	2467.45
730	2020.15
731	1718.89
732	1866.13
733	1817.74
734	1936.84
735	2123.46
736	2361.04
737	2422.81
738	2257.05
739	2557.00
740	3343.36
741	2977.98
742	3174.24
743	259.25
744	253.46
745	248.89
746	251.91
747	267.67
748	270.11
749	4800.00
750	4800.00
751	4515.36
752	4045.97
753	3150.21
754	2679.34
755	2056.80
756	1742.78
757	1758.73
758	1793.64
759	2306.05
760	2823.43
761	3030.33
762	3042.61
763	3044.87
764	3438.80
765	2913.30
766	3101.87
767	251.87
768	256.33
769	258.96
770	246.37
771	260.08
772	263.41
773	4800.00
774	4800.00
775	4125.98
776	3907.96
777	3615.78
778	3325.45
779	2676.80
780	2326.29
781	2367.83
782	2612.63
783	2783.34
784	3089.64
785	3204.94
786	3083.65
787	2999.35
788	3335.93
789	2689.67
790	2759.37
791	225.71
792	251.01
793	256.73
794	238.94
795	244.44
796	249.83
797	4800.00
798	4800.00
799	4186.77
800	3710.40
801	3057.27
802	2800.20
803	2844.27
804	2315.68
805	1891.69
806	1700.48
807	2003.78
808	2798.20
809	2987.32
810	3038.67
811	2962.97
812	3254.14
813	2595.15
814	2678.31
815	234.04
816	243.08
817	251.71
818	236.07
819	245.17
820	247.74
821	4800.00
822	4800.00
823	4420.00
824	4155.68
825	3752.72
826	3128.44
827	2698.71
828	2647.19
829	2336.72
830	2131.74
831	2159.20
832	2716.33
833	3081.04
834	3207.98
835	3288.27
836	3695.87
837	3154.64
838	3398.46
839	284.69
840	295.38
841	304.85
842	301.91
843	419.13
844	566.04
845	4800.00
846	4800.00
847	4800.00
848	4759.24
849	3494.84
850	2638.44
851	2230.28
852	1892.21
853	1754.71
854	1552.75
855	1837.41
856	2685.74
857	3357.54
858	3554.28
859	3589.68
860	3994.55
861	3491.71
862	3687.34
863	307.53
864	326.28
865	336.99
866	425.44
867	571.31
868	746.74
869	4800.00
870	4800.00
871	4800.00
872	4800.00
873	3515.17
874	2664.41
875	2375.80
876	2003.45
877	1802.07
878	1489.60
879	1644.59
880	2586.01
881	3238.23
882	3413.93
883	3509.89
884	3858.92
885	3462.25
886	3720.53
887	307.71
888	320.03
889	333.05
890	445.47
891	624.80
892	888.65
893	4800.00
894	4800.00
895	4800.00
896	4800.00
897	3629.86
898	2657.04
899	2344.95
900	2131.02
901	1899.62
902	1508.87
903	1608.08
904	2337.97
905	3004.90
906	3258.15
907	3428.97
908	3946.82
909	3561.53
910	3848.75
911	322.90
912	343.59
913	377.14
914	484.74
915	668.27
916	847.65
917	4800.00
918	4800.00
919	4800.00
920	4800.00
921	4142.18
922	3437.37
923	3004.50
924	2840.83
925	2677.33
926	2415.47
927	2794.92
928	3749.73
929	4175.14
930	4134.94
931	4051.95
932	4334.16
933	3860.63
934	4044.19
935	330.58
936	327.59
937	342.86
938	473.20
939	646.54
940	809.43
941	4800.00
942	4800.00
943	4800.00
944	4800.00
945	4800.00
946	4775.00
947	4408.57
948	3697.94
949	3449.94
950	3357.10
951	3582.76
952	3872.95
953	3870.33
954	3655.19
955	3557.53
956	3893.24
957	3330.38
958	3475.93
959	259.36
960	274.72
961	282.36
962	270.58
963	278.89
964	340.90
965	4800.00
966	4800.00
967	4782.30
968	4338.66
969	3885.54
970	3716.08
971	3471.28
972	3180.49
973	3034.09
974	2946.50
975	3060.17
976	3288.39
977	3348.21
978	3325.39
979	3206.62
980	3559.26
981	2715.36
982	2576.86
983	202.23
984	210.56
985	215.05
986	203.71
987	215.40
988	222.22
989	4800.00
990	4800.00
991	3875.36
992	3624.69
993	3245.89
994	3026.10
995	2824.98
996	2619.68
997	2760.06
998	2802.86
999	2860.39
1000	2969.36
1001	2966.71
1002	2901.53
1003	2857.89
1004	3210.72
1005	2545.44
1006	2651.42
1007	214.08
1008	237.95
1009	234.92
1010	215.19
1011	221.97
1012	220.40
1013	4800.00
1014	4742.11
1015	3523.32
1016	3241.26
1017	2960.38
1018	2736.77
1019	2496.17
1020	2206.64
1021	2123.57
1022	2028.11
1023	1997.50
1024	2249.39
1025	2566.24
1026	2835.28
1027	2973.23
1028	3373.31
1029	2799.46
1030	2848.01
1031	228.54
1032	234.42
1033	229.98
1034	209.30
1035	221.58
1036	224.31
1037	4800.00
1038	4800.00
1039	3755.45
1040	3335.70
1041	2881.94
1042	2569.73
1043	2231.55
1044	2043.03
1045	2005.07
1046	1605.07
1047	1726.56
1048	2366.75
1049	2668.05
1050	2667.58
1051	2805.32
1052	3309.64
1053	2721.04
1054	2732.64
1055	232.78
1056	237.00
1057	245.70
1058	233.34
1059	241.27
1060	245.47
1061	4800.00
1062	4800.00
1063	4164.73
1064	3417.27
1065	3005.45
1066	2694.41
1067	1836.45
1068	1419.79
1069	1204.66
1070	958.80
1071	1051.28
1072	1618.43
1073	2199.28
1074	2522.60
1075	2606.30
1076	3041.92
1077	2522.35
1078	2723.94
1079	253.33
1080	257.46
1081	266.07
1082	261.73
1083	275.60
1084	369.22
1085	4800.00
1086	4800.00
1087	4732.32
1088	3489.59
1089	2160.35
1090	1672.46
1091	1446.92
1092	1180.40
1093	885.46
1094	627.33
1095	596.83
1096	707.59
1097	1036.58
1098	1338.90
1099	1706.00
1100	2262.53
1101	1880.13
1102	2173.47
1103	199.38
1104	226.90
1105	241.68
1106	239.21
1107	256.16
1108	317.53
1109	4800.00
1110	4800.00
1111	4431.71
1112	3112.04
1113	1855.51
1114	1657.95
1115	1370.19
1116	1075.48
1117	869.80
1118	638.97
1119	612.66
1120	721.29
1121	995.66
1122	1166.06
1123	1379.42
1124	1862.05
1125	1342.08
1126	1479.47
1127	156.28
1128	210.02
1129	224.03
1130	214.77
1131	235.76
1132	245.57
1133	4800.00
1134	4800.00
1135	3692.16
1136	3151.54
1137	2636.38
1138	2529.41
1139	2277.96
1140	2393.10
1141	2526.49
1142	2497.92
1143	2683.97
1144	2933.00
1145	2976.22
1146	2962.32
1147	2932.83
1148	3337.64
1149	2715.50
1150	2868.24
1151	276.19
1152	255.68
1153	265.80
1154	267.12
1155	283.51
1156	395.53
1157	4800.00
1158	4800.00
1159	4724.64
1160	4362.21
1161	3388.87
1162	2751.76
1163	2416.22
1164	2273.00
1165	2726.36
1166	2772.61
1167	2735.05
1168	2904.52
1169	2963.21
1170	2937.88
1171	2870.98
1172	3146.76
1173	2510.32
1174	2633.35
1175	211.01
1176	234.02
1177	234.08
1178	215.51
1179	225.96
1180	226.94
1181	4800.00
1182	4800.00
1183	3639.62
1184	2831.23
1185	2195.37
1186	2714.87
1187	2701.53
1188	2509.18
1189	2627.90
1190	2647.19
1191	2793.07
1192	2914.72
1193	3017.89
1194	2947.89
1195	2953.13
1196	3306.95
1197	2808.58
1198	3023.07
1199	244.54
1200	251.83
1201	256.05
1202	233.11
1203	245.85
1204	254.42
1205	4800.00
1206	4800.00
1207	4071.62
1208	3493.86
1209	3001.62
1210	2681.65
1211	2377.07
1212	2196.09
1213	2144.89
1214	2126.94
1215	2634.20
1216	2938.53
1217	3108.57
1218	3024.38
1219	2863.72
1220	3125.54
1221	2420.09
1222	2498.82
1223	214.09
1224	227.45
1225	238.81
1226	222.12
1227	227.18
1228	232.93
1229	4800.00
1230	4800.00
1231	3765.75
1232	3400.70
1233	3323.22
1234	3121.77
1235	2886.46
1236	2679.53
1237	2677.74
1238	2566.88
1239	2701.01
1240	2843.38
1241	2962.67
1242	2879.70
1243	2772.33
1244	3184.46
1245	2623.53
1246	2775.59
1247	232.12
1248	229.99
1249	238.03
1250	229.73
1251	237.25
1252	237.19
1253	4800.00
1254	4800.00
1255	4147.03
1256	3303.03
1257	2445.29
1258	1993.46
1259	1897.67
1260	1742.90
1261	2256.09
1262	2595.79
1263	2672.84
1264	3003.82
1265	3211.39
1266	3094.43
1267	3163.53
1268	3582.19
1269	2949.38
1270	3092.70
1271	248.48
1272	272.92
1273	278.99
1274	271.78
1275	284.92
1276	290.83
1277	4800.00
1278	4800.00
1279	4697.48
1280	3786.25
1281	2700.82
1282	2303.24
1283	2098.95
1284	2040.42
1285	2207.18
1286	2003.16
1287	2123.06
1288	2737.00
1289	3272.62
1290	3401.32
1291	3477.13
1292	3921.78
1293	3495.59
1294	3660.31
1295	313.89
1296	335.58
1297	348.24
1298	440.67
1299	591.90
1300	780.25
1301	4800.00
1302	4800.00
1303	4800.00
1304	4800.00
1305	4597.85
1306	3769.53
1307	3008.51
1308	2485.00
1309	2141.41
1310	1802.62
1311	1909.54
1312	2626.79
1313	3487.67
1314	3826.07
1315	3918.88
1316	4372.66
1317	3928.39
1318	4129.82
1319	357.07
1320	356.93
1321	446.11
1322	651.93
1323	854.19
1324	1054.74
1325	4800.00
1326	4800.00
1327	4800.00
1328	4800.00
1329	4800.00
1330	4249.21
1331	3486.55
1332	3117.07
1333	2941.05
1334	2413.60
1335	2371.04
1336	2894.01
1337	3492.01
1338	3716.09
1339	4066.39
1340	4748.23
1341	4570.27
1342	4648.80
1343	333.84
1344	290.79
1345	260.60
1346	236.24
1347	240.36
1348	253.20
1349	4800.00
1350	4800.00
1351	4239.01
1352	3761.78
1353	2905.01
1354	2073.89
1355	1605.48
1356	1449.79
1357	1771.28
1358	2011.06
1359	2048.57
1360	2570.63
1361	3021.93
1362	3069.77
1363	2945.70
1364	3348.97
1365	2809.15
1366	2917.77
1367	227.47
1368	240.49
1369	259.80
1370	248.00
1371	249.53
1372	249.64
1373	4800.00
1374	4800.00
1375	4226.29
1376	3235.13
1377	2090.31
1378	1846.54
1379	1638.28
1380	1598.16
1381	1648.18
1382	1768.55
1383	2098.53
1384	2218.11
1385	2730.03
1386	2940.74
1387	3031.23
1388	3486.21
1389	2935.69
1390	3141.39
1391	261.08
1392	271.47
1393	278.55
1394	268.75
1395	272.31
1396	297.61
1397	4800.00
1398	4800.00
1399	4271.20
1400	3860.70
1401	3486.79
1402	3238.03
1403	2898.99
1404	2606.67
1405	2574.93
1406	2421.29
1407	2508.48
1408	2648.24
1409	2726.92
1410	2632.53
1411	2500.83
1412	2875.16
1413	2334.15
1414	2466.83
1415	191.96
1416	211.40
1417	215.86
1418	203.98
1419	213.37
1420	216.58
1421	4800.00
1422	4624.30
1423	3448.51
1424	3117.68
1425	2833.63
1426	2670.67
1427	2478.98
1428	2264.25
1429	2240.61
1430	2248.90
1431	2124.98
1432	2278.85
1433	2534.34
1434	2436.04
1435	2353.09
1436	2858.94
1437	2250.94
1438	2358.48
1439	195.75
1440	217.59
1441	227.73
1442	217.08
1443	234.71
1444	244.54
1445	4800.00
1446	4800.00
1447	3599.80
1448	2745.60
1449	2234.80
1450	1917.16
1451	1555.42
1452	1335.87
1453	1240.78
1454	1102.16
1455	1325.68
1456	2131.72
1457	2818.70
1458	2983.72
1459	3111.71
1460	3504.39
1461	2947.30
1462	3099.00
1463	261.02
1464	267.41
1465	270.69
1466	257.13
1467	267.93
1468	260.63
1469	4800.00
1470	4800.00
1471	4085.34
1472	3252.03
1473	2518.90
1474	2112.15
1475	2172.54
1476	1682.41
1477	1189.51
1478	1085.59
1479	1275.32
1480	1998.14
1481	2638.34
1482	2797.66
1483	2839.12
1484	3347.86
1485	2893.16
1486	3119.75
1487	264.22
1488	287.55
1489	299.26
1490	290.94
1491	361.52
1492	507.94
1493	4800.00
1494	4800.00
1495	4800.00
1496	4073.66
1497	3247.44
1498	2100.32
1499	1703.57
1500	1830.38
1501	2004.48
1502	1930.27
1503	1660.30
1504	1965.54
1505	2762.31
1506	3023.35
1507	3220.58
1508	3744.41
1509	3346.32
1510	3585.49
1511	299.32
1512	303.46
1513	312.66
1514	333.13
1515	480.88
1516	644.94
1517	4800.00
1518	4800.00
1519	4800.00
1520	4420.94
1521	3727.82
1522	3353.33
1523	2993.22
1524	2672.09
1525	2500.62
1526	2355.39
1527	2825.31
1528	3355.24
1529	3896.85
1530	4079.30
1531	4152.07
1532	4401.25
1533	3807.13
1534	3815.64
1535	301.78
1536	302.51
1537	299.34
1538	285.84
1539	334.44
1540	419.77
1541	4800.00
1542	4800.00
1543	4800.00
1544	4246.48
1545	3359.66
1546	2811.15
1547	2095.94
1548	1562.70
1549	1509.26
1550	1323.49
1551	1618.69
1552	2266.92
1553	2822.27
1554	2881.12
1555	2873.83
1556	3497.96
1557	3044.72
1558	3306.21
1559	270.54
1560	293.76
1561	302.69
1562	291.22
1563	347.33
1564	433.87
1565	4800.00
1566	4800.00
1567	4752.43
1568	3753.65
1569	2616.31
1570	1672.48
1571	1533.63
1572	1416.50
1573	1201.12
1574	976.13
1575	1086.38
1576	1577.04
1577	2369.61
1578	2753.81
1579	2881.56
1580	3400.06
1581	2919.80
1582	3128.90
1583	257.30
1584	266.95
1585	275.48
1586	269.90
1587	318.85
1588	442.72
1589	4800.00
1590	4800.00
1591	4524.81
1592	2820.47
1593	1888.13
1594	1771.16
1595	1624.02
1596	1427.50
1597	1289.36
1598	1056.67
1599	1168.34
1600	1631.74
1601	2401.11
1602	2745.82
1603	2833.93
1604	3311.75
1605	2889.45
1606	3104.86
1607	260.75
1608	267.86
1609	288.26
1610	295.32
1611	426.43
1612	568.55
1613	4800.00
1614	4800.00
1615	4533.87
1616	2587.70
1617	1732.86
1618	1733.03
1619	1591.38
1620	1293.52
1621	1020.78
1622	730.78
1623	689.81
1624	845.99
1625	1251.01
1626	1675.98
1627	2136.14
1628	2661.32
1629	2334.83
1630	2722.27
1631	246.37
1632	268.22
1633	279.53
1634	302.87
1635	456.06
1636	593.53
1637	4800.00
1638	4800.00
1639	4586.26
1640	3046.92
1641	2038.49
1642	2182.15
1643	2102.04
1644	1980.65
1645	1389.25
1646	1006.96
1647	1146.48
1648	1806.06
1649	2286.93
1650	2436.01
1651	2376.25
1652	2717.21
1653	2183.52
1654	2312.28
1655	195.46
1656	204.58
1657	207.85
1658	192.31
1659	197.29
1660	205.92
1661	4800.00
1662	4352.31
1663	3231.99
1664	2822.86
1665	1929.48
1666	1120.82
1667	938.13
1668	714.67
1669	592.13
1670	499.28
1671	393.72
1672	539.37
1673	893.38
1674	1244.85
1675	1622.87
1676	2119.26
1677	1631.34
1678	1894.34
1679	193.46
1680	220.81
1681	236.97
1682	220.65
1683	229.63
1684	235.04
1685	4800.00
1686	4783.52
1687	3265.97
1688	2462.16
1689	1592.27
1690	1384.89
1691	825.77
1692	548.31
1693	496.65
1694	372.25
1695	395.17
1696	539.98
1697	711.38
1698	869.89
1699	1263.43
1700	1767.09
1701	1288.75
1702	1452.60
1703	110.39
1704	145.18
1705	162.96
1706	164.15
1707	186.67
1708	198.30
1709	4800.00
1710	4515.20
1711	2743.68
1712	1297.20
1713	802.85
1714	589.79
1715	479.07
1716	340.10
1717	318.38
1718	231.67
1719	262.59
1720	389.38
1721	556.60
1722	610.78
1723	913.94
1724	1435.52
1725	924.78
1726	1121.46
1727	72.89
1728	149.09
1729	173.53
1730	171.35
1731	185.26
1732	185.98
1733	4527.46
1734	4276.30
1735	2564.83
1736	1278.98
1737	723.90
1738	671.72
1739	682.91
1740	501.55
1741	455.56
1742	302.82
1743	296.75
1744	400.02
1745	582.04
1746	575.23
1747	838.31
1748	1354.07
1749	809.08
1750	914.80
1751	64.45
1752	80.32
1753	125.93
1754	126.87
1755	133.92
1756	140.95
1757	3725.62
1758	3412.96
1759	2208.75
1760	1591.91
1761	1203.31
1762	1057.34
1763	674.68
1764	338.91
1765	321.99
1766	239.27
1767	261.82
1768	327.65
1769	496.48
1770	500.04
1771	715.63
1772	1275.36
1773	805.96
1774	941.85
1775	52.99
1776	65.20
1777	111.20
1778	111.33
1779	135.56
1780	149.52
1781	3901.61
1782	3532.74
1783	1941.71
1784	1276.54
1785	824.09
1786	501.49
1787	416.90
1788	322.78
1789	353.45
1790	263.92
1791	310.69
1792	450.30
1793	666.66
1794	760.97
1795	969.90
1796	1424.73
1797	920.03
1798	956.52
1799	72.78
1800	117.05
1801	135.69
1802	127.70
1803	137.06
1804	139.68
1805	3282.27
1806	2999.71
1807	2034.05
1808	1751.60
1809	1467.99
1810	1431.00
1811	1291.11
1812	1202.51
1813	1086.03
1814	958.87
1815	967.86
1816	1048.44
1817	1292.55
1818	1383.93
1819	1443.47
1820	1836.72
1821	1277.37
1822	1294.30
1823	136.20
1824	135.23
1825	140.63
1826	136.59
1827	155.08
1828	160.94
1829	4005.85
1830	3345.06
1831	2115.88
1832	1687.65
1833	1103.36
1834	1262.51
1835	1193.31
1836	937.41
1837	534.55
1838	350.73
1839	358.03
1840	528.71
1841	934.06
1842	1154.62
1843	1433.75
1844	1864.21
1845	1258.39
1846	1299.47
1847	116.69
1848	144.98
1849	173.81
1850	181.14
1851	193.15
1852	204.71
1853	4800.00
1854	4375.73
1855	2419.05
1856	1029.96
1857	597.64
1858	573.67
1859	586.84
1860	493.63
1861	534.76
1862	424.90
1863	408.71
1864	533.99
1865	695.20
1866	776.48
1867	1150.50
1868	1685.50
1869	1180.87
1870	1282.27
1871	94.36
1872	153.42
1873	174.30
1874	178.97
1875	205.39
1876	224.86
1877	4800.00
1878	4745.85
1879	3006.59
1880	1783.42
1881	1271.37
1882	1024.58
1883	806.03
1884	512.13
1885	459.19
1886	349.73
1887	359.84
1888	487.18
1889	706.64
1890	826.86
1891	1116.17
1892	1711.15
1893	1228.02
1894	1394.58
1895	140.70
1896	176.10
1897	201.47
1898	203.70
1899	224.92
1900	235.35
1901	4800.00
1902	4778.51
1903	2814.84
1904	1408.62
1905	861.46
1906	626.67
1907	479.32
1908	347.27
1909	367.79
1910	305.01
1911	445.82
1912	689.61
1913	826.11
1914	858.04
1915	1045.48
1916	1535.80
1917	975.01
1918	1023.64
1919	113.10
1920	138.51
1921	143.27
1922	131.67
1923	137.32
1924	138.67
1925	3322.07
1926	2894.75
1927	1878.07
1928	1526.91
1929	1370.35
1930	1229.41
1931	794.93
1932	472.74
1933	416.99
1934	399.16
1935	454.16
1936	810.07
1937	1245.80
1938	1283.51
1939	1445.76
1940	1809.43
1941	1146.50
1942	1097.15
1943	114.91
1944	141.81
1945	146.55
1946	132.24
1947	140.25
1948	150.36
1949	3809.76
1950	3195.16
1951	1738.76
1952	1057.33
1953	541.59
1954	527.94
1955	526.22
1956	432.70
1957	461.11
1958	399.94
1959	457.58
1960	679.02
1961	949.15
1962	1136.92
1963	1448.75
1964	1934.75
1965	1419.26
1966	1563.84
1967	179.23
1968	191.69
1969	198.10
1970	190.48
1971	206.01
1972	209.54
1973	4759.56
1974	3944.97
1975	1829.35
1976	1049.50
1977	616.87
1978	521.36
1979	428.50
1980	347.63
1981	416.49
1982	347.87
1983	364.11
1984	590.55
1985	1016.82
1986	1288.01
1987	1571.40
1988	2046.53
1989	1489.74
1990	1644.94
1991	180.60
1992	185.83
1993	196.89
1994	192.45
1995	205.58
1996	215.08
1997	4800.00
1998	4222.37
1999	2712.92
2000	1693.50
2001	1643.22
2002	1326.02
2003	1174.73
2004	1070.94
2005	1354.99
2006	1119.76
2007	861.69
2008	1333.02
2009	1682.98
2010	1987.44
2011	2325.13
2012	2707.86
2013	2279.78
2014	2501.60
2015	220.66
2016	247.69
2017	259.45
2018	250.66
2019	265.64
2020	268.00
2021	4800.00
2022	4800.00
2023	2860.17
2024	1613.33
2025	1041.36
2026	1073.45
2027	1009.35
2028	837.76
2029	780.67
2030	682.21
2031	738.93
2032	1018.68
2033	1498.03
2034	1682.20
2035	2080.41
2036	2663.90
2037	2231.93
2038	2552.58
2039	247.89
2040	265.25
2041	278.50
2042	269.58
2043	291.48
2044	409.19
2045	4800.00
2046	4800.00
2047	3106.15
2048	1839.27
2049	1368.98
2050	1344.00
2051	1283.11
2052	1194.48
2053	1186.56
2054	998.97
2055	968.70
2056	1435.47
2057	1925.65
2058	2355.12
2059	2786.97
2060	3236.93
2061	2730.50
2062	2995.84
2063	282.17
2064	290.50
2065	300.08
2066	297.25
2067	415.00
2068	517.90
2069	4800.00
2070	4800.00
2071	3430.37
2072	2060.26
2073	1512.46
2074	1957.11
2075	2076.79
2076	1867.68
2077	1797.72
2078	1610.00
2079	1342.46
2080	1551.55
2081	2139.62
2082	2663.35
2083	2952.90
2084	3487.09
2085	3009.02
2086	3181.87
2087	264.74
2088	255.69
2089	254.30
2090	239.02
2091	244.68
2092	246.41
2093	4800.00
2094	4800.00
2095	3012.86
2096	2581.11
2097	2094.76
2098	1730.19
2099	1528.48
2100	1232.76
2101	897.54
2102	857.68
2103	1186.95
2104	1611.88
2105	2109.36
2106	2573.74
2107	2722.24
2108	3098.58
2109	2445.44
2110	2649.53
2111	231.11
2112	246.54
2113	238.55
2114	218.55
2115	221.32
2116	220.26
2117	4800.00
2118	4698.42
2119	2843.92
2120	2537.86
2121	2401.21
2122	2228.70
2123	1847.03
2124	1043.17
2125	781.68
2126	529.91
2127	501.84
2128	750.18
2129	1179.53
2130	1480.06
2131	1686.17
2132	2100.94
2133	1498.60
2134	1606.98
2135	129.68
2136	149.76
2137	168.94
2138	173.79
2139	188.53
2140	199.23
2141	4800.00
2142	3903.80
2143	1522.72
2144	639.98
2145	421.12
2146	380.16
2147	307.72
2148	254.72
2149	289.29
2150	193.81
2151	218.36
2152	273.34
2153	359.60
2154	424.27
2155	581.72
2156	1096.35
2157	653.75
2158	806.52
2159	55.37
2160	40.72
2161	86.62
2162	115.12
2163	143.51
2164	156.66
2165	4427.94
2166	3346.19
2167	1241.63
2168	599.16
2169	358.45
2170	297.85
2171	236.29
2172	184.63
2173	214.49
2174	146.61
2175	160.19
2176	179.83
2177	257.38
2178	318.66
2179	407.20
2180	859.27
2181	452.26
2182	594.27
2183	43.45
2184	56.39
2185	57.15
2186	86.41
2187	121.52
2188	140.85
2189	3717.08
2190	2854.87
2191	1069.37
2192	546.96
2193	340.35
2194	349.67
2195	327.06
2196	255.63
2197	296.99
2198	203.00
2199	221.81
2200	244.35
2201	295.19
2202	371.26
2203	494.44
2204	864.24
2205	406.91
2206	573.64
2207	60.14
2208	59.52
2209	55.55
2210	47.30
2211	97.16
2212	118.78
2213	3295.89
2214	2698.08
2215	1003.84
2216	500.36
2217	309.27
2218	365.07
2219	345.23
2220	269.83
2221	313.49
2222	232.79
2223	345.81
2224	717.21
2225	1030.82
2226	1248.06
2227	1497.13
2228	1865.76
2229	1294.74
2230	1350.10
2231	170.67
2232	194.12
2233	209.45
2234	200.88
2235	214.09
2236	234.01
2237	4517.86
2238	3880.67
2239	1857.16
2240	1753.35
2241	1632.33
2242	1563.23
2243	1477.11
2244	1407.56
2245	1506.37
2246	1037.18
2247	1325.83
2248	1795.01
2249	2134.10
2250	2331.40
2251	2502.47
2252	2795.81
2253	2227.55
2254	2471.11
2255	251.98
2256	237.53
2257	253.26
2258	248.81
2259	250.65
2260	256.43
2261	4800.00
2262	4800.00
2263	4505.87
2264	4279.83
2265	3941.29
2266	3539.19
2267	3152.69
2268	2649.42
2269	2350.00
2270	2113.52
2271	2045.01
2272	2137.02
2273	2173.14
2274	2208.76
2275	2272.33
2276	2670.58
2277	1936.60
2278	1900.54
2279	168.59
2280	206.96
2281	233.14
2282	244.29
2283	270.84
2284	279.52
2285	4800.00
2286	4800.00
2287	3624.45
2288	1791.73
2289	1069.07
2290	1009.44
2291	925.32
2292	803.67
2293	831.78
2294	790.79
2295	954.48
2296	1365.77
2297	1752.37
2298	2268.42
2299	2598.85
2300	3078.28
2301	2565.91
2302	2858.10
2303	274.87
2304	276.06
2305	286.36
2306	287.42
2307	332.80
2308	524.72
2309	4800.00
2310	4800.00
2311	2924.12
2312	1391.96
2313	795.78
2314	659.14
2315	670.14
2316	676.66
2317	558.70
2318	417.92
2319	398.11
2320	612.39
2321	846.72
2322	1035.14
2323	1452.20
2324	2094.24
2325	1660.09
2326	1823.28
2327	165.96
2328	182.70
2329	188.86
2330	179.06
2331	194.29
2332	201.77
2333	4800.00
2334	3722.89
2335	1417.52
2336	604.63
2337	380.57
2338	360.70
2339	316.68
2340	263.69
2341	310.20
2342	230.32
2343	275.04
2344	327.99
2345	404.71
2346	567.60
2347	1098.41
2348	1686.48
2349	1215.51
2350	1361.12
2351	130.42
2352	160.18
2353	172.02
2354	170.38
2355	193.60
2356	204.05
2357	4486.49
2358	3284.37
2359	1172.16
2360	683.98
2361	620.82
2362	624.03
2363	513.04
2364	394.21
2365	440.62
2366	415.31
2367	533.85
2368	724.69
2369	1024.84
2370	1242.36
2371	1588.53
2372	2051.42
2373	1489.12
2374	1654.85
2375	198.95
2376	206.00
2377	220.03
2378	214.67
2379	226.62
2380	232.01
2381	4800.00
2382	4369.87
2383	2981.47
2384	2605.22
2385	2316.23
2386	2130.66
2387	1922.92
2388	1767.93
2389	1720.82
2390	1657.33
2391	1776.32
2392	1796.81
2393	2178.35
2394	2312.19
2395	2404.33
2396	2894.46
2397	2423.70
2398	2744.64
2399	244.07
2400	266.93
2401	284.06
2402	274.51
2403	285.78
2404	330.51
2405	4800.00
2406	4800.00
2407	3530.66
2408	2727.21
2409	2088.08
2410	1833.16
2411	1546.50
2412	991.96
2413	838.69
2414	756.52
2415	955.60
2416	1243.66
2417	1643.40
2418	2011.35
2419	2205.40
2420	2727.42
2421	2158.01
2422	2301.79
2423	201.52
2424	200.86
2425	214.55
2426	211.38
2427	236.72
2428	257.26
2429	4800.00
2430	4800.00
2431	3826.68
2432	3445.38
2433	3187.99
2434	2799.20
2435	2337.13
2436	2014.02
2437	1920.73
2438	1804.76
2439	1728.60
2440	1567.27
2441	1985.38
2442	2337.16
2443	2431.15
2444	2780.84
2445	2078.04
2446	2233.09
2447	201.71
2448	229.04
2449	244.77
2450	251.29
2451	261.37
2452	256.35
2453	4800.00
2454	4800.00
2455	3657.55
2456	3129.99
2457	2774.24
2458	2489.80
2459	2202.71
2460	2043.08
2461	1999.68
2462	1842.41
2463	1917.47
2464	2146.37
2465	2494.05
2466	2603.48
2467	2501.60
2468	2813.62
2469	2067.78
2470	2092.08
2471	181.02
2472	207.36
2473	212.14
2474	193.84
2475	205.46
2476	211.57
2477	4800.00
2478	4078.75
2479	2491.12
2480	2334.79
2481	1770.18
2482	1028.80
2483	703.04
2484	566.08
2485	622.32
2486	760.70
2487	816.66
2488	873.19
2489	1113.73
2490	1549.56
2491	1778.69
2492	2415.09
2493	1949.93
2494	2161.51
2495	201.49
2496	207.09
2497	228.91
2498	228.92
2499	247.24
2500	266.79
2501	4800.00
2502	4660.13
2503	2730.40
2504	2659.95
2505	1548.80
2506	904.35
2507	666.98
2508	495.87
2509	487.19
2510	578.15
2511	664.71
2512	933.00
2513	1310.58
2514	1493.19
2515	1513.24
2516	1895.40
2517	1330.49
2518	1421.81
2519	124.78
2520	149.43
2521	155.93
2522	142.70
2523	151.61
2524	151.26
2525	3960.29
2526	3214.68
2527	2090.01
2528	1724.83
2529	1556.47
2530	1392.72
2531	1195.14
2532	1025.76
2533	986.60
2534	996.92
2535	1276.07
2536	1601.92
2537	1805.17
2538	1726.02
2539	1642.33
2540	2182.78
2541	1689.14
2542	1894.39
2543	168.21
2544	171.16
2545	170.22
2546	161.52
2547	173.66
2548	175.99
2549	4444.19
2550	3509.87
2551	2213.42
2552	1259.00
2553	1191.91
2554	739.89
2555	537.67
2556	486.85
2557	478.61
2558	387.09
2559	538.83
2560	780.26
2561	999.70
2562	1278.50
2563	1563.18
2564	2093.66
2565	1691.39
2566	2008.74
2567	182.00
2568	199.48
2569	217.28
2570	208.76
2571	215.69
2572	215.30
2573	4800.00
2574	3626.12
2575	1319.81
2576	505.24
2577	312.73
2578	353.38
2579	333.35
2580	304.87
2581	418.76
2582	371.01
2583	515.26
2584	796.40
2585	1023.74
2586	1199.70
2587	1393.35
2588	1981.84
2589	1517.99
2590	1535.49
2591	151.73
2592	176.63
2593	178.82
2594	169.75
2595	186.77
2596	195.80
2597	4658.87
2598	3519.40
2599	1935.28
2600	1539.39
2601	813.30
2602	565.31
2603	501.63
2604	506.86
2605	561.95
2606	525.67
2607	597.44
2608	783.76
2609	1041.56
2610	1187.76
2611	1365.71
2612	1812.05
2613	1350.28
2614	1449.89
2615	143.96
2616	166.84
2617	185.63
2618	184.54
2619	200.98
2620	215.42
2621	4800.00
2622	2852.79
2623	883.98
2624	439.19
2625	300.91
2626	367.81
2627	347.83
2628	271.87
2629	315.85
2630	215.90
2631	235.88
2632	259.88
2633	296.06
2634	372.06
2635	531.80
2636	930.57
2637	433.55
2638	558.14
2639	63.97
2640	54.60
2641	74.84
2642	92.49
2643	109.59
2644	115.05
2645	3116.00
2646	2169.59
2647	670.23
2648	341.97
2649	282.19
2650	336.35
2651	316.68
2652	247.51
2653	287.56
2654	196.56
2655	214.76
2656	236.60
2657	283.22
2658	342.90
2659	468.95
2660	842.98
2661	344.24
2662	411.29
2663	58.24
2664	54.15
2665	50.54
2666	32.49
2667	48.24
2668	69.20
2669	2271.66
2670	2268.75
2671	1310.52
2672	520.99
2673	279.05
2674	332.14
2675	314.08
2676	245.49
2677	285.20
2678	198.38
2679	274.76
2680	348.06
2681	484.19
2682	570.08
2683	719.35
2684	1263.13
2685	716.30
2686	787.84
2687	57.77
2688	61.83
2689	93.89
2690	95.03
2691	112.68
2692	116.88
2693	2977.74
2694	2612.49
2695	1548.61
2696	1241.10
2697	1094.33
2698	957.20
2699	835.07
2700	688.41
2701	510.81
2702	341.99
2703	385.56
2704	476.42
2705	750.97
2706	960.40
2707	1338.78
2708	1856.32
2709	1273.79
2710	1366.77
2711	118.37
2712	152.64
2713	163.48
2714	164.11
2715	181.51
2716	189.78
2717	4631.62
2718	3772.93
2719	2411.36
2720	1809.08
2721	605.67
2722	348.31
2723	338.20
2724	267.21
2725	293.05
2726	199.78
2727	218.28
2728	248.41
2729	323.74
2730	391.54
2731	498.54
2732	868.58
2733	420.30
2734	460.08
2735	59.19
2736	47.89
2737	44.69
2738	28.73
2739	38.84
2740	73.77
2741	2519.66
2742	1293.70
2743	363.81
2744	210.22
2745	220.27
2746	293.71
2747	277.74
2748	217.09
2749	252.20
2750	172.40
2751	188.35
2752	207.51
2753	233.05
2754	242.62
2755	296.89
2756	488.14
2757	111.73
2758	79.81
2759	51.07
2760	52.81
2761	49.29
2762	31.68
2763	35.20
2764	31.68
2765	384.81
2766	928.05
2767	274.61
2768	214.76
2769	242.92
2770	323.89
2771	306.29
2772	239.41
2773	278.13
2774	190.11
2775	207.72
2776	228.84
2777	257.01
2778	267.57
2779	327.42
2780	568.02
2781	123.23
2782	88.02
2783	56.32
2784	50.12
2785	46.79
2786	30.08
2787	33.41
2788	30.08
2789	596.69
2790	1186.27
2791	451.90
2792	348.19
2793	346.38
2794	393.92
2795	360.64
2796	313.80
2797	378.40
2798	322.39
2799	360.34
2800	403.95
2801	550.54
2802	631.49
2803	806.37
2804	1221.55
2805	619.01
2806	661.51
2807	53.47
2808	62.06
2809	97.67
2810	98.57
2811	115.86
2812	123.38
2813	2955.21
2814	2196.45
2815	955.32
2816	589.65
2817	415.98
2818	572.63
2819	468.46
2820	356.07
2821	390.67
2822	350.49
2823	378.83
2824	431.06
2825	505.90
2826	702.97
2827	1010.31
2828	1538.06
2829	987.80
2830	989.70
2831	64.80
2832	107.33
2833	118.01
2834	106.10
2835	119.70
2836	122.75
2837	2828.14
2838	2005.33
2839	1248.98
2840	660.63
2841	416.20
2842	354.09
2843	316.68
2844	247.51
2845	287.56
2846	196.56
2847	214.76
2848	236.60
2849	272.72
2850	347.80
2851	447.02
2852	656.00
2853	271.98
2854	269.97
2855	58.24
2856	48.33
2857	45.11
2858	29.00
2859	32.22
2860	29.00
2861	1236.47
2862	1172.84
2863	333.08
2864	201.30
2865	222.34
2866	296.44
2867	280.34
2868	219.12
2869	254.56
2870	174.00
2871	190.11
2872	209.45
2873	235.23
2874	244.89
2875	299.67
2876	316.34
2877	112.78
2878	80.56
2879	51.55
2880	49.67
2881	46.37
2882	29.80
2883	33.12
2884	29.80
2885	179.34
2886	768.52
2887	258.31
2888	202.02
2889	228.52
2890	304.68
2891	288.13
2892	225.20
2893	261.63
2894	178.84
2895	195.40
2896	215.26
2897	241.76
2898	251.70
2899	308.00
2900	225.20
2901	115.91
2902	82.79
2903	52.99
2904	51.02
2905	47.62
2906	30.62
2907	34.01
2908	30.62
2909	123.69
2910	684.78
2911	265.30
2912	207.47
2913	234.69
2914	312.92
2915	295.91
2916	231.29
2917	268.71
2918	183.67
2919	200.68
2920	221.08
2921	248.30
2922	258.50
2923	316.32
2924	231.29
2925	119.05
2926	85.03
2927	54.43
2928	49.23
2929	45.95
2930	29.54
2931	32.82
2932	29.54
2933	118.15
2934	577.33
2935	255.99
2936	200.20
2937	226.45
2938	301.94
2939	285.53
2940	223.18
2941	259.27
2942	177.23
2943	193.63
2944	213.32
2945	239.59
2946	249.43
2947	305.22
2948	223.18
2949	114.87
2950	82.05
2951	52.52
2952	53.27
2953	49.70
2954	31.96
2955	35.51
2956	31.96
2957	127.81
2958	494.53
2959	276.94
2960	216.58
2961	244.98
2962	326.64
2963	308.89
2964	241.43
2965	280.49
2966	191.73
2967	209.48
2968	230.78
2969	259.19
2970	269.83
2971	330.19
2972	241.43
2973	124.27
2974	88.76
2975	56.80
2976	52.36
2977	48.87
2978	31.42
2979	34.91
2980	31.42
2981	557.57
2982	1115.56
2983	519.46
2984	424.81
2985	412.45
2986	484.18
2987	452.56
2988	335.14
2989	364.75
2990	327.41
2991	423.35
2992	484.12
2993	518.97
2994	579.75
2995	718.27
2996	1238.22
2997	766.88
2998	814.57
2999	55.85
3000	50.57
3001	52.42
3002	73.67
3003	102.47
3004	118.86
3005	3191.81
3006	2765.87
3007	1692.92
3008	1328.85
3009	1193.73
3010	1123.66
3011	1038.51
3012	1003.38
3013	1033.86
3014	923.67
3015	783.49
3016	934.46
3017	1152.00
3018	1304.83
3019	1533.72
3020	1889.35
3021	1250.75
3022	1311.85
3023	140.35
3024	153.89
3025	163.43
3026	162.75
3027	177.96
3028	185.77
3029	4064.47
3030	3354.45
3031	2192.23
3032	1840.63
3033	1581.87
3034	1387.24
3035	888.18
3036	566.74
3037	499.36
3038	547.44
3039	734.23
3040	746.07
3041	1101.82
3042	1293.12
3043	1426.80
3044	1776.26
3045	1147.45
3046	1126.13
3047	101.90
3048	126.00
3049	129.40
3050	117.37
3051	128.36
3052	128.10
3053	2212.86
3054	1309.81
3055	393.56
3056	237.64
3057	259.39
3058	345.86
3059	327.06
3060	255.63
3061	296.99
3062	203.00
3063	221.81
3064	244.35
3065	274.42
3066	285.70
3067	349.62
3068	521.47
3069	131.57
3070	93.98
3071	60.14
3072	54.15
3073	50.54
3074	32.49
3075	36.11
3076	32.49
3077	480.51
3078	1107.99
3079	391.88
3080	282.91
3081	269.25
3082	332.14
3083	314.08
3084	245.49
3085	285.20
3086	194.95
3087	213.00
3088	234.66
3089	263.53
3090	297.24
3091	412.51
3092	751.43
3093	288.13
3094	277.00
3095	57.77
3096	61.76
3097	57.64
3098	37.06
3099	41.17
3100	37.06
3101	1348.02
3102	1692.56
3103	806.65
3104	568.41
3105	475.20
3106	417.06
3107	358.21
3108	279.98
3109	325.27
3110	222.34
3111	242.92
3112	267.63
3113	300.57
3114	369.85
3115	497.17
3116	687.62
3117	324.32
3118	340.16
3119	65.87
3120	55.04
3121	51.38
3122	33.03
3123	36.70
3124	33.03
3125	2030.20
3126	1634.03
3127	420.41
3128	277.68
3129	257.49
3130	337.62
3131	319.27
3132	249.55
3133	289.92
3134	198.17
3135	216.52
3136	238.54
3137	267.89
3138	278.90
3139	341.30
3140	494.31
3141	162.28
3142	162.14
3143	58.72
3144	55.50
3145	51.80
3146	33.29
3147	37.00
3148	33.29
3149	502.01
3150	963.99
3151	289.58
3152	225.68
3153	255.28
3154	340.37
3155	321.86
3156	251.57
3157	292.27
3158	199.78
3159	218.28
3160	240.47
3161	270.08
3162	281.17
3163	344.07
3164	504.66
3165	129.49
3166	92.50
3167	59.19
3168	48.79
3169	45.53
3170	29.27
3171	32.52
3172	29.27
3173	566.94
3174	1125.41
3175	427.34
3176	284.79
3177	243.77
3178	299.20
3179	282.93
3180	221.15
3181	256.92
3182	175.61
3183	191.87
3184	220.72
3185	312.54
3186	363.67
3187	519.29
3188	907.38
3189	433.03
3190	521.45
3191	52.03
3192	53.27
3193	49.70
3194	78.08
3195	116.94
3196	122.96
3197	2895.46
3198	2412.38
3199	1436.99
3200	708.30
3201	459.65
3202	489.04
3203	393.91
3204	293.39
3205	312.37
3206	240.89
3207	280.64
3208	418.77
3209	620.38
3210	701.11
3211	975.83
3212	1563.89
3213	1044.85
3214	1055.77
3215	63.26
3216	111.10
3217	130.71
3218	122.09
3219	131.49
3220	141.76
3221	3079.51
3222	2035.91
3223	938.33
3224	405.20
3225	293.11
3226	320.89
3227	299.50
3228	269.47
3229	304.74
3230	224.47
3231	267.94
3232	340.95
3233	434.96
3234	541.74
3235	760.79
3236	1467.56
3237	1108.08
3238	1250.60
3239	69.33
3240	117.84
3241	148.24
3242	154.69
3243	177.58
3244	184.79
3245	3651.86
3246	2224.64
3247	681.43
3248	317.24
3249	220.92
3250	266.26
3251	251.79
3252	196.79
3253	228.63
3254	156.28
3255	170.75
3256	188.12
3257	211.27
3258	219.95
3259	300.65
3260	609.56
3261	266.96
3262	300.40
3263	46.30
3264	47.89
3265	44.69
3266	28.73
3267	31.92
3268	30.44
3269	1839.80
3270	1528.97
3271	716.61
3272	507.95
3273	431.91
3274	440.55
3275	403.35
3276	325.28
3277	349.74
3278	280.19
3279	290.09
3280	351.48
3281	409.14
3282	449.67
3283	586.69
3284	1131.44
3285	591.47
3286	682.90
3287	51.07
3288	48.79
3289	54.63
3290	62.87
3291	73.82
3292	76.56
3293	2532.93
3294	2216.01
3295	1095.30
3296	400.68
3297	288.80
3298	313.59
3299	282.93
3300	221.15
3301	256.92
3302	175.61
3303	191.87
3304	211.39
3305	241.45
3306	300.13
3307	386.83
3308	742.10
3309	298.47
3310	336.26
3311	52.03
3312	42.07
3313	39.26
3314	25.24
3315	28.04
3316	25.24
3317	1222.83
3318	933.10
3319	270.17
3320	195.50
3321	195.85
3322	267.82
3323	278.53
3324	243.29
3325	280.51
3326	229.85
3327	264.87
3328	313.12
3329	377.17
3330	440.57
3331	611.53
3332	1079.63
3333	582.09
3334	631.52
3335	44.87
3336	50.57
3337	50.47
3338	74.76
3339	94.85
3340	104.39
3341	2450.20
3342	1383.21
3343	405.15
3344	247.81
3345	233.48
3346	310.18
3347	293.32
3348	229.26
3349	266.35
3350	182.06
3351	198.92
3352	219.14
3353	246.12
3354	256.23
3355	344.11
3356	723.46
3357	341.53
3358	355.11
3359	53.94
3360	47.44
3361	44.27
3362	34.92
3363	74.87
3364	89.28
3365	2257.72
3366	2109.50
3367	1162.59
3368	769.33
3369	600.81
3370	477.00
3371	430.70
3372	282.72
3373	279.56
3374	186.96
3375	230.38
3376	269.66
3377	305.62
3378	387.36
3379	537.11
3380	985.13
3381	553.40
3382	684.02
3383	50.60
3384	45.64
3385	45.25
3386	58.19
3387	79.12
3388	85.57
3389	2551.39
3390	2256.13
3391	1283.41
3392	960.38
3393	794.72
3394	722.54
3395	641.05
3396	517.82
3397	511.63
3398	500.65
3399	518.58
3400	631.97
3401	824.08
3402	917.99
3403	1093.39
3404	1506.45
3405	872.55
3406	851.61
3407	49.16
3408	77.64
3409	91.34
3410	85.51
3411	91.24
3412	89.47
3413	2309.71
3414	1994.73
3415	908.94
3416	296.61
3417	243.38
3418	299.20
3419	282.93
3420	221.15
3421	256.92
3422	175.61
3423	191.87
3424	211.39
3425	237.41
3426	248.48
3427	359.38
3428	723.28
3429	302.21
3430	364.42
3431	52.03
3432	40.72
3433	38.01
3434	24.43
3435	27.16
3436	24.43
3437	1473.01
3438	1097.09
3439	265.60
3440	174.26
3441	187.34
3442	249.79
3443	236.21
3444	184.63
3445	214.49
3446	146.61
3447	160.19
3448	176.48
3449	198.19
3450	206.35
3451	252.50
3452	309.07
3453	95.03
3454	67.88
3455	43.45
3456	48.79
3457	45.53
3458	29.27
3459	32.52
3460	29.27
3461	303.98
3462	816.71
3463	272.80
3464	198.38
3465	224.40
3466	299.20
3467	282.93
3468	221.15
3469	256.92
3470	175.61
3471	191.87
3472	211.39
3473	237.41
3474	247.16
3475	312.63
3476	582.50
3477	193.39
3478	174.02
3479	52.03
3480	48.33
3481	45.11
3482	29.00
3483	32.22
3484	29.00
3485	587.96
3486	950.24
3487	278.10
3488	197.73
3489	222.34
3490	296.44
3491	280.34
3492	219.12
3493	254.56
3494	174.00
3495	190.11
3496	209.45
3497	235.23
3498	244.89
3499	299.67
3500	255.75
3501	112.78
3502	80.56
3503	51.55
3504	42.96
3505	40.09
3506	25.78
3507	28.64
3508	25.78
3509	152.65
3510	691.23
3511	223.42
3512	174.72
3513	197.63
3514	263.51
3515	249.19
3516	194.77
3517	226.28
3518	154.67
3519	168.99
3520	186.18
3521	209.08
3522	217.68
3523	266.38
3524	342.23
3525	100.25
3526	71.61
3527	45.83
3528	57.73
3529	53.88
3530	34.64
3531	38.49
3532	34.64
3533	231.04
3534	836.88
3535	300.21
3536	234.78
3537	265.57
3538	354.10
3539	334.84
3540	261.72
3541	304.06
3542	207.84
3543	227.08
3544	250.18
3545	280.97
3546	292.51
3547	357.94
3548	261.72
3549	134.71
3550	96.23
3551	61.58
3552	40.72
3553	38.01
3554	24.43
3555	27.16
3556	24.43
3557	97.74
3558	469.04
3559	211.78
3560	165.62
3561	187.34
3562	249.79
3563	236.21
3564	184.63
3565	214.49
3566	146.61
3567	160.19
3568	176.48
3569	198.19
3570	206.35
3571	252.50
3572	184.63
3573	95.03
3574	67.88
3575	43.45
3576	58.63
3577	54.72
3578	35.17
3579	39.09
3580	35.17
3581	140.71
3582	531.56
3583	304.87
3584	238.42
3585	269.69
3586	359.58
3587	340.04
3588	265.78
3589	308.77
3590	211.06
3591	230.60
3592	254.06
3593	285.32
3594	297.05
3595	363.50
3596	446.77
3597	160.59
3598	146.33
3599	62.54
3600	59.52
3601	55.55
3602	35.71
3603	39.68
3604	35.71
3605	423.47
3606	1094.38
3607	449.28
3608	365.88
3609	385.18
3610	452.10
3611	411.89
3612	322.80
3613	363.11
3614	269.97
3615	299.38
3616	331.04
3617	388.29
3618	440.34
3619	536.26
3620	849.82
3621	314.97
3622	283.22
3623	63.49
3624	45.20
3625	42.19
3626	27.12
3627	30.13
3628	27.12
3629	1392.91
3630	1616.16
3631	805.01
3632	643.17
3633	577.06
3634	575.28
3635	485.31
3636	395.39
3637	435.46
3638	350.48
3639	343.07
3640	401.67
3641	559.33
3642	643.81
3643	895.01
3644	1370.95
3645	771.09
3646	784.83
3647	48.21
3648	52.08
3649	77.01
3650	79.19
3651	93.40
3652	96.38
3653	2275.61
3654	1732.34
3655	637.40
3656	349.64
3657	283.51
3658	342.25
3659	314.57
3660	232.82
3661	266.53
3662	178.99
3663	195.40
3664	215.26
3665	278.55
3666	350.01
3667	477.16
3668	839.80
3669	412.56
3670	549.93
3671	52.99
3672	42.96
3673	40.09
3674	27.18
3675	63.49
3676	82.79
3677	2151.85
3678	1402.36
3679	350.12
3680	217.89
3681	198.02
3682	263.51
3683	249.19
3684	194.77
3685	226.28
3686	154.67
3687	168.99
3688	186.18
3689	209.08
3690	217.68
3691	266.38
3692	461.16
3693	142.79
3694	188.28
3695	45.83
3696	40.28
3697	37.60
3698	24.17
3699	26.85
3700	24.17
3701	1055.28
3702	1272.24
3703	521.11
3704	373.11
3705	341.46
3706	275.66
3707	233.62
3708	182.59
3709	212.14
3710	145.00
3711	158.43
3712	174.53
3713	196.02
3714	246.54
3715	341.89
3716	604.70
3717	285.32
3718	313.69
3719	42.96
3720	42.52
3721	39.68
3722	25.51
3723	28.35
3724	25.51
3725	1377.44
3726	1334.60
3727	310.06
3728	191.18
3729	195.58
3730	260.77
3731	246.59
3732	192.74
3733	223.92
3734	153.06
3735	167.23
3736	184.23
3737	206.91
3738	215.42
3739	272.55
3740	472.89
3741	200.86
3742	215.07
3743	45.35
3744	46.09
3745	43.03
3746	27.65
3747	30.73
3748	27.65
3749	731.77
3750	990.70
3751	272.83
3752	188.32
3753	212.05
3754	282.72
3755	267.36
3756	208.97
3757	242.77
3758	165.94
3759	181.31
3760	199.75
3761	224.33
3762	233.56
3763	285.80
3764	340.02
3765	137.28
3766	161.53
3767	49.17
3768	50.12
3769	46.79
3770	30.08
3771	33.41
3772	30.08
3773	727.43
3774	1074.81
3775	350.01
3776	328.28
3777	341.79
3778	350.91
3779	290.72
3780	227.24
3781	263.99
3782	180.45
3783	197.16
3784	234.71
3785	301.10
3786	347.06
3787	484.68
3788	909.27
3789	432.03
3790	456.72
3791	53.47
3792	51.91
3793	48.46
3794	31.15
3795	65.49
3796	88.63
3797	1548.55
3798	1134.06
3799	380.32
3800	291.46
3801	293.87
3802	350.14
3803	308.65
3804	235.35
3805	273.42
3806	186.89
3807	204.20
3808	224.96
3809	259.42
3810	317.79
3811	451.75
3812	780.11
3813	378.97
3814	390.95
3815	55.37
3816	46.55
3817	43.45
3818	27.93
3819	42.54
3820	67.99
3821	2461.37
3822	2072.21
3823	531.90
3824	264.42
3825	222.49
3826	285.47
3827	269.95
3828	211.00
3829	245.14
3830	167.56
3831	183.07
3832	201.69
3833	226.51
3834	235.82
3835	288.57
3836	211.00
3837	108.61
3838	77.65
3839	49.65
3840	40.28
3841	37.60
3842	24.17
3843	26.85
3844	24.17
3845	143.10
3846	635.01
3847	209.45
3848	163.81
3849	185.28
3850	247.04
3851	233.62
3852	182.59
3853	212.14
3854	145.00
3855	158.43
3856	174.53
3857	196.02
3858	204.08
3859	249.73
3860	182.59
3861	93.98
3862	67.13
3863	42.96
3864	43.85
3865	40.94
3866	26.32
3867	29.23
3868	26.32
3869	105.25
3870	397.65
3871	228.06
3872	178.36
3873	201.75
3874	269.00
3875	254.38
3876	198.83
3877	230.99
3878	157.89
3879	172.51
3880	190.06
3881	213.44
3882	222.23
3883	271.93
3884	198.83
3885	102.34
3886	73.09
3887	46.79
3888	42.52
3889	39.68
3890	25.51
3891	28.35
3892	25.51
3893	102.04
3894	385.48
3895	221.08
3896	172.91
3897	195.58
3898	260.77
3899	246.59
3900	192.74
3901	223.92
3902	153.06
3903	167.23
3904	184.23
3905	206.91
3906	215.42
3907	263.60
3908	192.74
3909	99.20
3910	70.87
3911	45.35
3912	44.76
3913	41.77
3914	26.85
3915	29.84
3916	26.85
3917	107.41
3918	544.99
3919	232.72
3920	182.00
3921	205.87
3922	274.49
3923	259.58
3924	202.88
3925	235.70
3926	161.12
3927	176.03
3928	193.94
3929	217.80
3930	226.75
3931	277.48
3932	202.88
3933	104.43
3934	74.59
3935	47.74
3936	41.17
3937	38.43
3938	24.70
3939	27.44
3940	24.70
3941	98.81
3942	386.53
3943	214.09
3944	167.44
3945	189.40
3946	252.53
3947	238.81
3948	186.65
3949	216.85
3950	148.22
3951	161.95
3952	178.42
3953	200.38
3954	208.61
3955	255.28
3956	186.65
3957	96.07
3958	68.62
3959	43.92
3960	38.49
3961	35.92
3962	23.10
3963	25.66
3964	23.10
3965	92.38
3966	348.97
3967	200.14
3968	156.52
3969	177.05
3970	236.06
3971	223.23
3972	174.48
3973	202.71
3974	138.56
3975	151.39
3976	166.78
3977	187.31
3978	195.01
3979	238.63
3980	174.48
3981	89.80
3982	64.15
3983	41.05
3984	43.85
3985	40.94
3986	26.32
3987	29.23
3988	26.32
3989	105.25
3990	397.65
3991	228.06
3992	178.36
3993	201.75
3994	269.00
3995	254.38
3996	198.83
3997	230.99
3998	157.89
3999	172.51
4000	190.06
4001	213.44
4002	222.23
4003	271.93
4004	198.83
4005	102.34
4006	73.09
4007	46.79
4008	40.28
4009	37.60
4010	24.17
4011	26.85
4012	24.17
4013	96.67
4014	423.61
4015	209.45
4016	163.81
4017	185.28
4018	247.04
4019	233.62
4020	182.59
4021	212.14
4022	145.00
4023	158.43
4024	174.53
4025	196.02
4026	204.08
4027	249.73
4028	182.59
4029	93.98
4030	67.13
4031	42.96
4032	38.04
4033	35.51
4034	22.82
4035	25.36
4036	22.82
4037	116.34
4038	638.60
4039	197.81
4040	154.70
4041	174.99
4042	233.32
4043	220.64
4044	172.45
4045	200.35
4046	136.95
4047	149.63
4048	164.84
4049	185.14
4050	192.74
4051	235.85
4052	172.45
4053	88.76
4054	63.41
4055	40.58
4056	44.76
4057	41.77
4058	26.85
4059	29.84
4060	26.85
4061	117.29
4062	642.91
4063	232.72
4064	182.00
4065	205.87
4066	274.49
4067	259.58
4068	202.88
4069	235.70
4070	161.12
4071	176.03
4072	193.94
4073	217.80
4074	226.75
4075	277.48
4076	202.88
4077	104.43
4078	74.59
4079	47.74
4080	38.04
4081	35.51
4082	22.82
4083	25.36
4084	22.82
4085	91.30
4086	344.91
4087	197.81
4088	154.70
4089	174.99
4090	233.32
4091	220.64
4092	172.45
4093	200.35
4094	136.95
4095	149.63
4096	164.84
4097	185.14
4098	192.74
4099	235.85
4100	172.45
4101	88.76
4102	63.41
4103	40.58
4104	32.22
4105	30.08
4106	19.33
4107	21.49
4108	19.33
4109	77.33
4110	292.16
4111	167.56
4112	131.04
4113	148.22
4114	197.63
4115	186.89
4116	146.07
4117	169.71
4118	116.00
4119	126.74
4120	139.63
4121	156.82
4122	163.26
4123	199.78
4124	146.07
4125	75.19
4126	53.71
4127	34.37
4128	43.85
4129	40.94
4130	26.32
4131	29.23
4132	26.32
4133	105.25
4134	397.65
4135	228.06
4136	178.36
4137	201.75
4138	269.00
4139	254.38
4140	198.83
4141	230.99
4142	157.89
4143	172.51
4144	190.06
4145	213.44
4146	222.23
4147	271.93
4148	198.83
4149	102.34
4150	73.09
4151	46.79
4152	38.93
4153	36.34
4154	23.36
4155	25.96
4156	23.36
4157	93.45
4158	353.02
4159	202.46
4160	158.34
4161	179.11
4162	238.81
4163	225.83
4164	176.51
4165	205.06
4166	140.17
4167	153.15
4168	168.72
4169	189.50
4170	197.27
4171	241.40
4172	176.51
4173	90.85
4174	64.90
4175	41.54
4176	30.88
4177	28.82
4178	18.53
4179	20.59
4180	18.53
4181	74.11
4182	279.98
4183	160.57
4184	125.58
4185	142.05
4186	189.40
4187	179.11
4188	139.99
4189	162.64
4190	111.17
4191	121.46
4192	133.81
4193	150.28
4194	156.47
4195	191.46
4196	139.99
4197	72.05
4198	51.47
4199	32.94
4200	41.17
4201	38.43
4202	24.70
4203	27.44
4204	24.70
4205	98.81
4206	373.31
4207	214.09
4208	167.44
4209	189.40
4210	252.53
4211	238.81
4212	186.65
4213	216.85
4214	148.22
4215	161.95
4216	178.42
4217	200.38
4218	208.61
4219	255.28
4220	186.65
4221	96.07
4222	68.62
4223	43.92
4224	38.93
4225	36.34
4226	23.36
4227	25.96
4228	23.36
4229	93.45
4230	353.02
4231	202.46
4232	158.34
4233	179.11
4234	238.81
4235	225.83
4236	176.51
4237	205.06
4238	140.17
4239	153.15
4240	168.72
4241	189.50
4242	197.27
4243	241.40
4244	176.51
4245	90.85
4246	64.90
4247	41.54
4248	36.70
4249	34.25
4250	22.02
4251	24.46
4252	22.02
4253	88.07
4254	332.73
4255	190.83
4256	149.24
4257	168.81
4258	225.08
4259	212.85
4260	166.37
4261	193.27
4262	132.11
4263	144.34
4264	159.03
4265	178.59
4266	185.93
4267	227.53
4268	166.37
4269	85.63
4270	61.16
4271	39.14
4272	38.04
4273	35.51
4274	22.82
4275	25.36
4276	22.82
4277	91.30
4278	346.15
4279	197.81
4280	154.70
4281	174.99
4282	233.32
4283	220.64
4284	172.45
4285	200.35
4286	136.95
4287	149.63
4288	164.84
4289	185.14
4290	192.74
4291	235.85
4292	172.45
4293	88.76
4294	63.41
4295	40.58
4296	43.41
4297	40.52
4298	26.05
4299	28.94
4300	26.05
4301	104.18
4302	584.38
4303	225.74
4304	176.53
4305	199.69
4306	266.26
4307	251.79
4308	196.79
4309	228.63
4310	156.28
4311	170.75
4312	188.12
4313	211.27
4314	219.95
4315	269.15
4316	196.79
4317	101.30
4318	72.35
4319	46.30
4320	46.99
4321	43.85
4322	28.19
4323	31.33
4324	28.19
4325	112.78
4326	624.86
4327	244.35
4328	191.10
4329	216.17
4330	288.22
4331	272.55
4332	213.03
4333	247.49
4334	169.17
4335	184.84
4336	203.63
4337	228.69
4338	238.09
4339	291.35
4340	216.53
4341	109.65
4342	78.32
4343	50.12
4344	49.67
4345	46.37
4346	29.80
4347	33.12
4348	29.80
4349	138.82
4350	732.50
4351	258.31
4352	202.02
4353	228.52
4354	304.68
4355	288.13
4356	225.20
4357	261.63
4358	178.84
4359	195.40
4360	215.26
4361	241.76
4362	251.70
4363	308.00
4364	388.07
4365	115.91
4366	82.79
4367	52.99
4368	44.76
4369	41.77
4370	26.85
4371	29.84
4372	26.85
4373	215.37
4374	749.46
4375	232.72
4376	182.00
4377	205.87
4378	274.49
4379	259.58
4380	202.88
4381	235.70
4382	161.12
4383	176.03
4384	193.94
4385	217.80
4386	226.75
4387	277.48
4388	256.63
4389	104.43
4390	74.59
4391	47.74
4392	39.38
4393	36.76
4394	23.63
4395	26.26
4396	23.63
4397	94.52
4398	565.68
4399	204.80
4400	160.16
4401	181.16
4402	241.55
4403	228.43
4404	178.55
4405	207.42
4406	141.78
4407	154.91
4408	170.66
4409	191.67
4410	199.55
4411	244.18
4412	178.55
4413	91.89
4414	65.64
4415	42.01
4416	40.28
4417	37.60
4418	24.17
4419	26.85
4420	24.17
4421	96.67
4422	433.25
4423	209.45
4424	163.81
4425	185.28
4426	247.04
4427	233.62
4428	182.59
4429	212.14
4430	145.00
4431	158.43
4432	174.53
4433	196.02
4434	204.08
4435	249.73
4436	182.59
4437	93.98
4438	67.13
4439	42.96
4440	41.62
4441	38.84
4442	24.97
4443	27.75
4444	24.97
4445	99.89
4446	627.42
4447	216.43
4448	169.26
4449	191.46
4450	255.28
4451	241.40
4452	188.68
4453	219.20
4454	149.84
4455	163.71
4456	180.36
4457	202.55
4458	210.88
4459	258.05
4460	188.68
4461	97.12
4462	69.37
4463	44.39
4464	43.85
4465	40.94
4466	26.32
4467	29.23
4468	26.32
4469	157.68
4470	740.11
4471	228.06
4472	178.36
4473	201.75
4474	269.00
4475	254.38
4476	198.83
4477	230.99
4478	157.89
4479	172.51
4480	190.06
4481	213.44
4482	222.23
4483	271.93
4484	451.60
4485	102.34
4486	73.09
4487	46.79
4488	42.52
4489	39.68
4490	25.51
4491	28.35
4492	25.51
4493	186.12
4494	809.06
4495	239.60
4496	173.60
4497	195.58
4498	260.77
4499	246.59
4500	192.74
4501	223.92
4502	153.06
4503	167.23
4504	184.23
4505	206.91
4506	215.42
4507	281.34
4508	486.04
4509	199.38
4510	204.02
4511	45.35
4512	38.93
4513	36.34
4514	23.36
4515	25.96
4516	23.36
4517	871.46
4518	1076.04
4519	270.13
4520	159.51
4521	179.11
4522	238.81
4523	225.83
4524	176.51
4525	205.06
4526	140.17
4527	153.15
4528	168.72
4529	189.50
4530	197.27
4531	241.40
4532	270.70
4533	101.58
4534	121.68
4535	41.54
4536	37.14
4537	34.67
4538	22.29
4539	24.76
4540	22.29
4541	388.82
4542	727.31
4543	193.16
4544	151.06
4545	170.87
4546	227.83
4547	215.44
4548	168.40
4549	195.64
4550	133.72
4551	146.11
4552	160.97
4553	180.78
4554	188.20
4555	230.30
4556	168.40
4557	86.67
4558	61.91
4559	39.62
4560	39.38
4561	36.76
4562	23.63
4563	26.26
4564	23.63
4565	94.52
4566	508.43
4567	204.80
4568	160.16
4569	181.16
4570	241.55
4571	228.43
4572	178.55
4573	207.42
4574	141.78
4575	154.91
4576	170.66
4577	191.67
4578	199.55
4579	244.18
4580	178.55
4581	91.89
4582	65.64
4583	42.01
4584	37.14
4585	34.67
4586	22.29
4587	24.76
4588	22.29
4589	89.14
4590	336.79
4591	193.16
4592	151.06
4593	170.87
4594	227.83
4595	215.44
4596	168.40
4597	195.64
4598	133.72
4599	146.11
4600	160.97
4601	180.78
4602	188.20
4603	230.30
4604	168.40
4605	86.67
4606	61.91
4607	39.62
4608	37.14
4609	34.67
4610	22.29
4611	24.76
4612	22.29
4613	89.14
4614	336.79
4615	193.16
4616	151.06
4617	170.87
4618	227.83
4619	215.44
4620	168.40
4621	195.64
4622	133.72
4623	146.11
4624	160.97
4625	180.78
4626	188.20
4627	230.30
4628	168.40
4629	86.67
4630	61.91
4631	39.62
4632	43.85
4633	40.94
4634	26.32
4635	29.23
4636	26.32
4637	105.25
4638	397.65
4639	228.06
4640	178.36
4641	201.75
4642	269.00
4643	254.38
4644	198.83
4645	230.99
4646	157.89
4647	172.51
4648	190.06
4649	213.44
4650	222.23
4651	271.93
4652	198.83
4653	102.34
4654	73.09
4655	46.79
4656	44.76
4657	41.77
4658	26.85
4659	29.84
4660	26.85
4661	107.41
4662	405.76
4663	232.72
4664	182.00
4665	205.87
4666	274.49
4667	259.58
4668	202.88
4669	235.70
4670	161.12
4671	176.03
4672	193.94
4673	217.80
4674	226.75
4675	277.48
4676	202.88
4677	104.43
4678	74.59
4679	47.74
4680	34.91
4681	32.58
4682	20.94
4683	23.27
4684	20.94
4685	83.78
4686	319.53
4687	181.52
4688	141.96
4689	160.57
4690	214.09
4691	202.46
4692	158.25
4693	183.85
4694	125.67
4695	137.30
4696	151.27
4697	169.89
4698	176.87
4699	216.43
4700	158.25
4701	81.45
4702	58.18
4703	37.23
4704	43.85
4705	40.94
4706	26.32
4707	29.23
4708	26.32
4709	105.25
4710	562.46
4711	228.06
4712	178.36
4713	201.75
4714	269.00
4715	254.38
4716	198.83
4717	230.99
4718	157.89
4719	172.51
4720	190.06
4721	213.44
4722	222.23
4723	271.93
4724	198.83
4725	102.34
4726	73.09
4727	46.79
4728	37.14
4729	34.67
4730	22.29
4731	24.76
4732	22.29
4733	89.14
4734	511.63
4735	193.16
4736	151.06
4737	170.87
4738	227.83
4739	215.44
4740	168.40
4741	195.64
4742	133.72
4743	146.11
4744	160.97
4745	180.78
4746	188.20
4747	230.30
4748	168.40
4749	86.67
4750	61.91
4751	39.62
4752	36.70
4753	34.25
4754	22.02
4755	24.46
4756	22.02
4757	88.07
4758	332.73
4759	190.83
4760	149.24
4761	168.81
4762	225.08
4763	212.85
4764	166.37
4765	193.27
4766	132.11
4767	144.34
4768	159.03
4769	178.59
4770	185.93
4771	227.53
4772	166.37
4773	85.63
4774	61.16
4775	39.14
4776	37.60
4777	35.09
4778	22.56
4779	25.07
4780	22.56
4781	90.22
4782	340.84
4783	195.49
4784	152.88
4785	172.93
4786	230.57
4787	218.04
4788	170.42
4789	197.99
4790	135.34
4791	147.86
4792	162.90
4793	182.95
4794	190.48
4795	233.08
4796	170.42
4797	87.72
4798	62.66
4799	40.09
4800	41.17
4801	38.43
4802	24.70
4803	27.44
4804	24.70
4805	98.81
4806	373.31
4807	214.09
4808	167.44
4809	189.40
4810	252.53
4811	238.81
4812	186.65
4813	216.85
4814	148.22
4815	161.95
4816	178.42
4817	200.38
4818	208.61
4819	255.28
4820	186.65
4821	96.07
4822	68.62
4823	43.92
4824	32.67
4825	30.49
4826	19.61
4827	21.78
4828	19.61
4829	78.41
4830	296.21
4831	169.89
4832	132.85
4833	150.28
4834	200.38
4835	189.50
4836	148.10
4837	172.06
4838	117.61
4839	128.50
4840	141.57
4841	159.00
4842	165.53
4843	202.55
4844	148.10
4845	76.23
4846	54.46
4847	34.85
4848	30.88
4849	28.82
4850	18.53
4851	20.59
4852	18.53
4853	74.11
4854	279.98
4855	160.57
4856	125.58
4857	142.05
4858	189.40
4859	179.11
4860	139.99
4861	162.64
4862	111.17
4863	121.46
4864	133.81
4865	150.28
4866	156.47
4867	191.46
4868	139.99
4869	72.05
4870	51.47
4871	32.94
4872	33.56
4873	31.33
4874	20.14
4875	22.38
4876	20.14
4877	80.56
4878	304.33
4879	174.53
4880	136.49
4881	154.40
4882	205.87
4883	194.68
4884	152.16
4885	176.77
4886	120.84
4887	132.03
4888	145.45
4889	163.35
4890	170.06
4891	208.10
4892	152.16
4893	78.32
4894	55.94
4895	35.80
4896	36.70
4897	34.25
4898	22.02
4899	24.46
4900	22.02
4901	88.07
4902	508.82
4903	190.83
4904	149.24
4905	168.81
4906	225.08
4907	212.85
4908	166.37
4909	193.27
4910	132.11
4911	144.34
4912	159.03
4913	178.59
4914	185.93
4915	227.53
4916	166.37
4917	85.63
4918	61.16
4919	39.14
4920	33.12
4921	30.91
4922	19.87
4923	22.08
4924	19.87
4925	79.48
4926	421.76
4927	172.22
4928	134.68
4929	152.34
4930	203.12
4931	192.09
4932	150.13
4933	174.42
4934	119.22
4935	130.26
4936	143.51
4937	161.18
4938	167.80
4939	205.33
4940	150.13
4941	77.28
4942	55.20
4943	35.33
4944	34.45
4945	32.17
4946	20.68
4947	22.98
4948	20.68
4949	82.71
4950	357.79
4951	179.20
4952	140.15
4953	158.52
4954	211.36
4955	199.87
4956	156.23
4957	181.49
4958	124.06
4959	135.55
4960	149.33
4961	167.71
4962	174.60
4963	213.65
4964	156.23
4965	80.41
4966	57.44
4967	36.76
4968	39.38
4969	36.76
4970	23.63
4971	26.26
4972	23.63
4973	94.52
4974	529.98
4975	204.80
4976	160.16
4977	181.16
4978	241.55
4979	228.43
4980	178.55
4981	207.42
4982	141.78
4983	154.91
4984	170.66
4985	191.67
4986	199.55
4987	244.18
4988	178.55
4989	91.89
4990	65.64
4991	42.01
4992	38.49
4993	35.92
4994	23.10
4995	25.66
4996	23.10
4997	92.38
4998	350.37
4999	200.14
5000	156.52
5001	177.05
5002	236.06
5003	223.23
5004	174.48
5005	202.71
5006	138.56
5007	151.39
5008	166.78
5009	187.31
5010	195.01
5011	238.63
5012	174.48
5013	89.80
5014	64.15
5015	41.05
5016	29.98
5017	27.99
5018	17.99
5019	19.99
5020	17.99
5021	71.96
5022	271.87
5023	155.93
5024	121.94
5025	137.93
5026	183.91
5027	173.91
5028	135.93
5029	157.92
5030	107.95
5031	117.94
5032	129.93
5033	145.93
5034	151.92
5035	185.90
5036	135.93
5037	69.96
5038	49.98
5039	31.99
5040	35.36
5041	33.00
5042	21.21
5043	23.57
5044	21.21
5045	84.86
5046	320.56
5047	183.85
5048	143.78
5049	162.64
5050	216.85
5051	205.06
5052	160.28
5053	186.21
5054	127.28
5055	139.06
5056	153.21
5057	172.06
5058	179.13
5059	219.20
5060	160.28
5061	82.50
5062	58.93
5063	37.72
5064	36.26
5065	33.83
5066	21.75
5067	24.17
5068	21.75
5069	87.00
5070	328.67
5071	188.50
5072	147.42
5073	166.75
5074	222.34
5075	210.25
5076	164.34
5077	190.92
5078	130.50
5079	142.59
5080	157.09
5081	176.41
5082	183.67
5083	224.75
5084	164.34
5085	84.59
5086	60.42
5087	38.67
5088	29.09
5089	27.16
5090	17.46
5091	19.39
5092	17.46
5093	69.82
5094	308.23
5095	151.27
5096	118.30
5097	133.81
5098	178.42
5099	168.72
5100	131.87
5101	153.21
5102	104.72
5103	114.42
5104	126.06
5105	141.57
5106	147.39
5107	180.36
5108	131.87
5109	67.88
5110	48.49
5111	31.03
5112	30.43
5113	28.39
5114	18.25
5115	20.29
5116	18.25
5117	73.04
5118	444.24
5119	158.25
5120	123.76
5121	139.99
5122	186.65
5123	176.51
5124	137.96
5125	160.28
5126	109.56
5127	119.70
5128	131.87
5129	148.10
5130	154.19
5131	188.68
5132	137.96
5133	71.01
5134	50.72
5135	32.47
5136	33.12
5137	30.91
5138	19.87
5139	22.08
5140	19.87
5141	79.48
5142	485.77
5143	172.22
5144	134.68
5145	152.34
5146	203.12
5147	192.09
5148	150.13
5149	174.42
5150	119.22
5151	130.26
5152	143.51
5153	161.18
5154	167.80
5155	205.33
5156	150.13
5157	77.28
5158	55.20
5159	35.33
5160	35.36
5161	33.00
5162	21.21
5163	23.57
5164	21.21
5165	84.86
5166	404.95
5167	183.85
5168	143.78
5169	162.64
5170	216.85
5171	205.06
5172	160.28
5173	186.21
5174	127.28
5175	139.06
5176	153.21
5177	172.06
5178	179.13
5179	219.20
5180	160.28
5181	82.50
5182	58.93
5183	37.72
5184	38.49
5185	35.92
5186	23.10
5187	25.66
5188	23.10
5189	92.38
5190	535.48
5191	200.14
5192	156.52
5193	177.05
5194	236.06
5195	223.23
5196	174.48
5197	202.71
5198	138.56
5199	151.39
5200	166.78
5201	187.31
5202	195.01
5203	238.63
5204	174.48
5205	89.80
5206	64.15
5207	41.05
5208	31.78
5209	29.66
5210	19.07
5211	21.19
5212	19.07
5213	76.26
5214	509.92
5215	165.23
5216	129.22
5217	146.17
5218	194.89
5219	184.30
5220	144.05
5221	167.35
5222	114.39
5223	124.98
5224	137.70
5225	154.64
5226	160.99
5227	197.00
5228	144.05
5229	74.14
5230	52.96
5231	33.89
5232	35.80
5233	33.41
5234	21.49
5235	23.87
5236	21.49
5237	85.93
5238	349.12
5239	186.18
5240	145.60
5241	164.69
5242	219.59
5243	207.66
5244	162.31
5245	188.56
5246	128.89
5247	140.83
5248	155.15
5249	174.24
5250	181.41
5251	221.98
5252	162.31
5253	83.54
5254	59.68
5255	38.19
5256	35.80
5257	33.41
5258	21.49
5259	23.87
5260	21.49
5261	85.93
5262	324.62
5263	186.18
5264	145.60
5265	164.69
5266	219.59
5267	207.66
5268	162.31
5269	188.56
5270	128.89
5271	140.83
5272	155.15
5273	174.24
5274	181.41
5275	221.98
5276	162.31
5277	83.54
5278	59.68
5279	38.19
5280	32.67
5281	30.49
5282	19.61
5283	21.78
5284	19.61
5285	78.41
5286	296.21
5287	169.89
5288	132.85
5289	150.28
5290	200.38
5291	189.50
5292	148.10
5293	172.06
5294	117.61
5295	128.50
5296	141.57
5297	159.00
5298	165.53
5299	202.55
5300	148.10
5301	76.23
5302	54.46
5303	34.85
5304	29.09
5305	27.16
5306	17.46
5307	19.39
5308	17.46
5309	69.82
5310	263.75
5311	151.27
5312	118.30
5313	133.81
5314	178.42
5315	168.72
5316	131.87
5317	153.21
5318	104.72
5319	114.42
5320	126.06
5321	141.57
5322	147.39
5323	180.36
5324	131.87
5325	67.88
5326	48.49
5327	31.03
5328	38.49
5329	35.92
5330	23.10
5331	25.66
5332	23.10
5333	92.38
5334	348.97
5335	200.14
5336	156.52
5337	177.05
5338	236.06
5339	223.23
5340	174.48
5341	202.71
5342	138.56
5343	151.39
5344	166.78
5345	187.31
5346	195.01
5347	238.63
5348	174.48
5349	89.80
5350	64.15
5351	41.05
5352	26.41
5353	24.64
5354	15.85
5355	17.60
5356	15.85
5357	63.37
5358	239.41
5359	137.30
5360	107.38
5361	121.46
5362	161.95
5363	153.15
5364	119.70
5365	139.06
5366	95.05
5367	103.85
5368	114.42
5369	128.50
5370	133.78
5371	163.71
5372	119.70
5373	61.61
5374	44.01
5375	28.16
5376	33.56
5377	31.33
5378	20.14
5379	22.38
5380	20.14
5381	80.56
5382	304.33
5383	174.53
5384	136.49
5385	154.40
5386	205.87
5387	194.68
5388	152.16
5389	176.77
5390	120.84
5391	132.03
5392	145.45
5393	163.35
5394	170.06
5395	208.10
5396	152.16
5397	78.32
5398	55.94
5399	35.80
5400	32.22
5401	30.08
5402	19.33
5403	21.49
5404	19.33
5405	77.33
5406	292.16
5407	167.56
5408	131.04
5409	148.22
5410	197.63
5411	186.89
5412	146.07
5413	169.71
5414	116.00
5415	126.74
5416	139.63
5417	156.82
5418	163.26
5419	199.78
5420	146.07
5421	75.19
5422	53.71
5423	34.37
5424	36.70
5425	34.25
5426	22.02
5427	24.46
5428	22.02
5429	88.07
5430	332.73
5431	190.83
5432	149.24
5433	168.81
5434	225.08
5435	212.85
5436	166.37
5437	193.27
5438	132.11
5439	144.34
5440	159.03
5441	178.59
5442	185.93
5443	227.53
5444	166.37
5445	85.63
5446	61.16
5447	39.14
5448	29.09
5449	27.16
5450	17.46
5451	19.39
5452	17.46
5453	69.82
5454	263.75
5455	151.27
5456	118.30
5457	133.81
5458	178.42
5459	168.72
5460	131.87
5461	153.21
5462	104.72
5463	114.42
5464	126.06
5465	141.57
5466	147.39
5467	180.36
5468	131.87
5469	67.88
5470	48.49
5471	31.03
5472	32.67
5473	30.49
5474	19.61
5475	21.78
5476	19.61
5477	78.41
5478	296.21
5479	169.89
5480	132.85
5481	150.28
5482	200.38
5483	189.50
5484	148.10
5485	172.06
5486	117.61
5487	128.50
5488	141.57
5489	159.00
5490	165.53
5491	202.55
5492	148.10
5493	76.23
5494	54.46
5495	34.85
5496	39.83
5497	37.18
5498	23.89
5499	26.55
5500	23.89
5501	95.59
5502	361.13
5503	207.12
5504	161.98
5505	183.23
5506	244.30
5507	231.01
5508	180.57
5509	209.77
5510	143.38
5511	156.67
5512	172.60
5513	193.84
5514	201.81
5515	246.95
5516	180.57
5517	92.94
5518	66.39
5519	42.49
5520	32.22
5521	30.08
5522	19.33
5523	21.49
5524	19.33
5525	77.33
5526	292.16
5527	167.56
5528	131.04
5529	148.22
5530	197.63
5531	186.89
5532	146.07
5533	169.71
5534	116.00
5535	126.74
5536	139.63
5537	156.82
5538	163.26
5539	199.78
5540	146.07
5541	75.19
5542	53.71
5543	34.37
5544	28.19
5545	26.32
5546	16.92
5547	18.79
5548	16.92
5549	67.67
5550	266.36
5551	146.61
5552	114.66
5553	129.70
5554	172.93
5555	163.53
5556	127.81
5557	148.49
5558	101.50
5559	110.90
5560	122.18
5561	137.21
5562	142.85
5563	174.81
5564	127.81
5565	65.79
5566	46.99
5567	30.08
5568	41.17
5569	38.43
5570	24.70
5571	27.44
5572	24.70
5573	98.81
5574	373.31
5575	214.09
5576	167.44
5577	189.40
5578	252.53
5579	238.81
5580	186.65
5581	216.85
5582	148.22
5583	161.95
5584	178.42
5585	200.38
5586	208.61
5587	255.28
5588	186.65
5589	96.07
5590	68.62
5591	43.92
5592	31.33
5593	29.23
5594	18.79
5595	20.89
5596	18.79
5597	75.19
5598	532.77
5599	162.90
5600	127.40
5601	144.10
5602	192.13
5603	181.70
5604	142.02
5605	164.99
5606	112.78
5607	123.23
5608	135.75
5609	152.46
5610	158.73
5611	194.23
5612	442.09
5613	98.45
5614	97.48
5615	33.41
5616	37.14
5617	34.67
5618	22.29
5619	24.76
5620	22.29
5621	118.31
5622	636.47
5623	193.16
5624	151.06
5625	170.87
5626	227.83
5627	215.44
5628	168.40
5629	195.64
5630	133.72
5631	146.11
5632	160.97
5633	180.78
5634	188.20
5635	230.30
5636	217.86
5637	86.67
5638	61.91
5639	39.62
5640	32.67
5641	30.49
5642	19.61
5643	21.78
5644	19.61
5645	78.41
5646	528.85
5647	169.89
5648	132.85
5649	150.28
5650	200.38
5651	189.50
5652	148.10
5653	172.06
5654	117.61
5655	128.50
5656	141.57
5657	159.00
5658	165.53
5659	202.55
5660	148.10
5661	76.23
5662	54.46
5663	34.85
5664	39.38
5665	36.76
5666	23.63
5667	26.26
5668	23.63
5669	94.52
5670	387.88
5671	204.80
5672	160.16
5673	181.16
5674	241.55
5675	228.43
5676	178.55
5677	207.42
5678	141.78
5679	154.91
5680	170.66
5681	191.67
5682	199.55
5683	244.18
5684	178.55
5685	91.89
5686	65.64
5687	42.01
5688	42.52
5689	39.68
5690	25.51
5691	28.35
5692	25.51
5693	102.04
5694	523.22
5695	221.08
5696	172.91
5697	195.58
5698	260.77
5699	246.59
5700	192.74
5701	223.92
5702	153.06
5703	167.23
5704	184.23
5705	206.91
5706	215.42
5707	263.60
5708	192.74
5709	99.20
5710	70.87
5711	45.35
5712	34.45
5713	32.17
5714	20.68
5715	22.98
5716	20.68
5717	82.71
5718	468.00
5719	179.20
5720	140.15
5721	158.52
5722	211.36
5723	199.87
5724	156.23
5725	181.49
5726	124.06
5727	135.55
5728	149.33
5729	167.71
5730	174.60
5731	213.65
5732	156.23
5733	80.41
5734	57.44
5735	36.76
5736	40.28
5737	37.60
5738	24.17
5739	26.85
5740	24.17
5741	96.67
5742	582.20
5743	209.45
5744	163.81
5745	185.28
5746	247.04
5747	233.62
5748	182.59
5749	212.14
5750	145.00
5751	158.43
5752	174.53
5753	196.02
5754	204.08
5755	249.73
5756	182.59
5757	93.98
5758	67.13
5759	42.96
5760	37.14
5761	34.67
5762	22.29
5763	24.76
5764	22.29
5765	89.14
5766	493.51
5767	193.16
5768	151.06
5769	170.87
5770	227.83
5771	215.44
5772	168.40
5773	195.64
5774	133.72
5775	146.11
5776	160.97
5777	180.78
5778	188.20
5779	230.30
5780	290.74
5781	86.67
5782	61.91
5783	39.62
5784	42.07
5785	39.26
5786	25.24
5787	28.04
5788	25.24
5789	478.89
5790	1000.92
5791	258.27
5792	171.08
5793	193.51
5794	258.02
5795	244.00
5796	190.71
5797	221.56
5798	151.45
5799	165.47
5800	182.37
5801	266.65
5802	322.82
5803	393.91
5804	726.75
5805	233.42
5806	261.76
5807	44.87
5808	37.60
5809	35.09
5810	22.56
5811	25.07
5812	22.56
5813	1443.56
5814	1502.30
5815	812.50
5816	675.08
5817	569.13
5818	484.67
5819	409.45
5820	316.80
5821	256.01
5822	177.10
5823	233.11
5824	308.58
5825	395.52
5826	458.81
5827	578.72
5828	984.91
5829	445.50
5830	451.00
5831	40.09
5832	41.17
5833	38.43
5834	24.70
5835	27.44
5836	34.04
5837	1789.23
5838	1597.37
5839	646.77
5840	331.94
5841	223.46
5842	256.50
5843	243.47
5844	188.21
5845	216.85
5846	148.22
5847	181.70
5848	237.14
5849	293.17
5850	363.70
5851	491.57
5852	924.45
5853	427.48
5854	431.46
5855	43.92
5856	33.12
5857	30.91
5858	19.87
5859	23.79
5860	42.66
5861	2079.31
5862	1287.66
5863	277.68
5864	140.74
5865	152.34
5866	203.12
5867	192.09
5868	150.13
5869	174.42
5870	119.22
5871	130.26
5872	143.51
5873	161.18
5874	167.80
5875	205.33
5876	266.88
5877	77.28
5878	55.20
5879	35.33
5880	38.49
5881	35.92
5882	23.10
5883	25.66
5884	23.10
5885	492.23
5886	796.11
5887	200.29
5888	156.52
5889	177.05
5890	236.06
5891	223.23
5892	174.48
5893	202.71
5894	138.56
5895	151.39
5896	166.78
5897	187.31
5898	195.01
5899	238.63
5900	198.20
5901	89.80
5902	64.15
5903	41.05
5904	32.22
5905	30.08
5906	19.33
5907	21.49
5908	19.33
5909	130.84
5910	599.92
5911	167.56
5912	131.04
5913	148.22
5914	197.63
5915	186.89
5916	146.07
5917	169.71
5918	116.00
5919	126.74
5920	139.63
5921	156.82
5922	163.26
5923	199.78
5924	302.48
5925	75.19
5926	53.71
5927	34.37
5928	36.26
5929	33.83
5930	21.75
5931	24.17
5932	21.75
5933	259.98
5934	791.06
5935	271.18
5936	213.76
5937	189.93
5938	222.34
5939	210.25
5940	164.34
5941	190.92
5942	130.50
5943	142.59
5944	157.09
5945	176.41
5946	183.67
5947	224.75
5948	242.27
5949	84.59
5950	71.54
5951	38.67
5952	36.70
5953	34.25
5954	22.02
5955	24.46
5956	22.02
5957	498.97
5958	967.79
5959	329.90
5960	149.24
5961	168.81
5962	225.08
5963	212.85
5964	166.37
5965	193.27
5966	132.11
5967	144.34
5968	159.03
5969	178.59
5970	185.93
5971	227.53
5972	166.37
5973	85.63
5974	61.16
5975	39.14
5976	29.98
5977	27.99
5978	17.99
5979	19.99
5980	17.99
5981	227.36
5982	562.29
5983	155.93
5984	121.94
5985	137.93
5986	183.91
5987	173.91
5988	135.93
5989	157.92
5990	107.95
5991	117.94
5992	129.93
5993	145.93
5994	151.92
5995	185.90
5996	187.65
5997	69.96
5998	49.98
5999	31.99
6000	32.67
6001	30.49
6002	19.61
6003	21.78
6004	19.61
6005	218.65
6006	599.00
6007	169.89
6008	132.85
6009	150.28
6010	200.38
6011	189.50
6012	148.10
6013	172.06
6014	117.61
6015	128.50
6016	141.57
6017	159.00
6018	165.53
6019	202.55
6020	148.10
6021	76.23
6022	54.46
6023	34.85
6024	26.41
6025	24.64
6026	15.85
6027	17.60
6028	15.85
6029	63.37
6030	387.26
6031	137.30
6032	107.38
6033	121.46
6034	161.95
6035	153.15
6036	119.70
6037	139.06
6038	95.05
6039	103.85
6040	114.42
6041	128.50
6042	133.78
6043	163.71
6044	119.70
6045	61.61
6046	44.01
6047	28.16
6048	32.22
6049	30.08
6050	19.33
6051	21.49
6052	19.33
6053	77.33
6054	294.88
6055	167.56
6056	131.04
6057	148.22
6058	197.63
6059	186.89
6060	146.07
6061	169.71
6062	116.00
6063	126.74
6064	139.63
6065	156.82
6066	163.26
6067	199.78
6068	355.14
6069	75.19
6070	62.26
6071	34.37
6072	28.64
6073	26.74
6074	17.18
6075	19.09
6076	17.18
6077	323.47
6078	785.85
6079	265.84
6080	202.04
6081	203.07
6082	223.51
6083	198.01
6084	159.25
6085	173.01
6086	118.20
6087	130.08
6088	145.97
6089	182.72
6090	213.64
6091	262.91
6092	578.70
6093	178.05
6094	195.20
6095	30.55
6096	36.70
6097	34.25
6098	22.02
6099	24.46
6100	22.02
6101	1195.71
6102	1074.65
6103	229.25
6104	149.24
6105	168.81
6106	225.08
6107	212.85
6108	166.37
6109	193.27
6110	132.11
6111	144.34
6112	159.03
6113	178.59
6114	185.93
6115	227.53
6116	255.03
6117	85.63
6118	61.16
6119	39.14
6120	36.70
6121	34.25
6122	22.02
6123	24.46
6124	22.02
6125	1052.59
6126	1047.82
6127	198.22
6128	149.24
6129	168.81
6130	225.08
6131	212.85
6132	166.37
6133	193.27
6134	132.11
6135	144.34
6136	159.03
6137	178.59
6138	185.93
6139	227.53
6140	251.53
6141	85.63
6142	61.16
6143	39.14
6144	45.64
6145	42.61
6146	27.39
6147	30.43
6148	27.39
6149	640.78
6150	1171.44
6151	480.35
6152	319.33
6153	266.45
6154	308.37
6155	271.45
6156	206.94
6157	240.42
6158	164.34
6159	179.78
6160	233.05
6161	283.76
6162	308.29
6163	373.56
6164	701.30
6165	260.20
6166	239.81
6167	48.69
6168	50.57
6169	47.20
6170	30.34
6171	33.71
6172	30.34
6173	1451.69
6174	1419.92
6175	401.03
6176	209.08
6177	232.63
6178	310.18
6179	293.32
6180	229.26
6181	266.35
6182	182.06
6183	198.92
6184	219.14
6185	246.12
6186	256.23
6187	313.55
6188	539.36
6189	184.03
6190	172.33
6191	53.94
6192	40.28
6193	37.60
6194	24.17
6195	26.85
6196	24.17
6197	1842.55
6198	1887.62
6199	919.56
6200	703.51
6201	323.10
6202	286.86
6203	258.90
6204	188.27
6205	212.14
6206	145.00
6207	158.43
6208	188.61
6209	271.08
6210	312.58
6211	374.09
6212	782.57
6213	350.80
6214	376.38
6215	42.96
6216	34.45
6217	32.17
6218	20.68
6219	22.98
6220	20.68
6221	1442.81
6222	1481.05
6223	530.13
6224	238.53
6225	165.52
6226	211.36
6227	199.87
6228	158.71
6229	189.66
6230	139.54
6231	165.65
6232	201.37
6233	251.79
6234	289.32
6235	400.09
6236	819.98
6237	355.20
6238	388.85
6239	36.76
6240	40.28
6241	37.60
6242	24.17
6243	26.85
6244	24.17
6245	1580.51
6246	1726.54
6247	857.11
6248	391.62
6249	246.02
6250	368.69
6251	353.16
6252	274.61
6253	307.49
6254	267.81
6255	305.43
6256	479.73
6257	645.34
6258	649.12
6259	762.05
6260	1185.69
6261	607.70
6262	628.30
6263	42.96
6264	42.07
6265	39.26
6266	41.66
6267	62.58
6268	70.12
6269	2388.64
6270	2133.36
6271	942.48
6272	468.27
6273	210.31
6274	258.96
6275	247.73
6276	190.71
6277	221.56
6278	151.45
6279	165.47
6280	201.27
6281	282.82
6282	333.71
6283	429.37
6284	842.95
6285	376.06
6286	410.55
6287	44.87
6288	39.38
6289	36.76
6290	23.63
6291	26.26
6292	23.63
6293	1893.44
6294	1883.85
6295	750.17
6296	372.02
6297	231.72
6298	250.73
6299	238.69
6300	199.55
6301	231.92
6302	174.45
6303	211.99
6304	258.32
6305	350.73
6306	414.76
6307	571.23
6308	1039.55
6309	494.93
6310	510.84
6311	42.01
6312	51.47
6313	48.04
6314	30.88
6315	34.31
6316	47.61
6317	2249.81
6318	2262.59
6319	1292.51
6320	950.36
6321	755.13
6322	652.59
6323	511.85
6324	420.61
6325	485.41
6326	452.68
6327	388.56
6328	581.26
6329	833.42
6330	922.58
6331	1244.18
6332	1732.80
6333	1016.95
6334	963.74
6335	57.31
6336	94.12
6337	109.93
6338	102.58
6339	116.73
6340	121.64
6341	3193.30
6342	2884.62
6343	1864.86
6344	1431.56
6345	667.95
6346	423.75
6347	358.92
6348	293.69
6349	334.65
6350	285.88
6351	383.60
6352	532.81
6353	968.29
6354	1141.46
6355	1251.67
6356	1654.49
6357	1071.14
6358	1129.80
6359	91.24
6360	120.57
6361	130.85
6362	126.13
6363	134.90
6364	135.70
6365	3529.15
6366	3059.80
6367	2159.12
6368	1949.06
6369	1863.20
6370	1711.38
6371	1620.55
6372	1521.45
6373	1178.86
6374	1101.27
6375	1244.36
6376	1679.95
6377	2221.98
6378	2412.09
6379	2428.16
6380	2778.96
6381	2160.35
6382	2306.39
6383	198.71
6384	194.43
6385	195.21
6386	184.20
6387	196.17
6388	206.05
6389	4800.00
6390	4164.40
6391	1872.57
6392	804.47
6393	477.91
6394	491.22
6395	502.76
6396	377.04
6397	363.68
6398	313.04
6399	354.69
6400	520.87
6401	748.79
6402	915.83
6403	1169.28
6404	1718.16
6405	1253.33
6406	1368.03
6407	122.09
6408	151.44
6409	161.42
6410	155.17
6411	164.25
6412	167.30
6413	4137.80
6414	3441.96
6415	2389.15
6416	2051.09
6417	1722.52
6418	1113.94
6419	754.66
6420	490.14
6421	436.82
6422	356.96
6423	380.24
6424	566.84
6425	992.39
6426	1263.76
6427	1496.97
6428	1911.53
6429	1348.17
6430	1464.55
6431	136.79
6432	156.69
6433	169.88
6434	167.48
6435	171.09
6436	165.31
6437	4272.99
6438	3372.51
6439	2320.97
6440	2063.20
6441	1845.03
6442	1589.57
6443	1262.68
6444	650.49
6445	352.14
6446	259.09
6447	286.15
6448	441.56
6449	767.07
6450	931.26
6451	1218.84
6452	1741.40
6453	1190.24
6454	1295.65
6455	68.99
6456	101.45
6457	110.69
6458	109.75
6459	117.39
6460	117.06
6461	3569.92
6462	2873.06
6463	1845.78
6464	1394.76
6465	733.01
6466	489.88
6467	390.94
6468	302.64
6469	292.34
6470	233.49
6471	286.15
6472	473.00
6473	753.77
6474	800.88
6475	949.96
6476	1393.01
6477	814.94
6478	851.01
6479	40.72
6480	76.51
6481	91.56
6482	86.80
6483	98.58
6484	105.15
6485	2991.17
6486	2508.58
6487	1223.17
6488	484.48
6489	345.14
6490	327.66
6491	280.27
6492	214.59
6493	233.64
6494	167.84
6495	203.01
6496	251.74
6497	351.42
6498	424.48
6499	643.62
6500	1192.02
6501	663.56
6502	718.76
6503	45.35
6504	53.71
6505	68.63
6506	82.85
6507	101.92
6508	111.79
6509	3215.11
6510	2837.68
6511	1450.67
6512	1199.18
6513	430.13
6514	342.30
6515	313.12
6516	243.47
6517	282.85
6518	193.34
6519	211.24
6520	270.98
6521	353.22
6522	397.56
6523	525.08
6524	955.99
6525	446.69
6526	475.06
6527	57.28
6528	45.64
6529	42.61
6530	27.39
6531	30.43
6532	29.41
6533	1770.35
6534	1919.35
6535	1075.51
6536	814.00
6537	650.91
6538	538.05
6539	344.80
6540	247.70
6541	268.89
6542	177.80
6543	196.19
6544	255.68
6545	342.64
6546	428.15
6547	620.27
6548	1191.92
6549	683.94
6550	732.30
6551	48.69
6552	45.20
6553	42.19
6554	27.12
6555	30.13
6556	33.89
6557	2090.11
6558	2045.96
6559	947.57
6560	890.04
6561	843.61
6562	781.24
6563	643.27
6564	486.15
6565	442.69
6566	238.33
6567	256.27
6568	391.48
6569	613.62
6570	637.28
6571	761.23
6572	1174.33
6573	585.12
6574	586.26
6575	48.21
6576	45.64
6577	42.61
6578	27.39
6579	44.43
6580	59.36
6581	2221.69
6582	2117.07
6583	893.98
6584	389.57
6585	259.76
6586	367.95
6587	292.53
6588	206.94
6589	240.42
6590	164.34
6591	179.55
6592	197.81
6593	222.16
6594	252.37
6595	320.21
6596	558.73
6597	157.85
6598	136.83
6599	48.69
6600	54.60
6601	50.96
6602	32.76
6603	36.40
6604	32.76
6605	804.91
6606	1331.46
6607	562.28
6608	474.66
6609	474.06
6610	500.46
6611	450.46
6612	309.43
6613	326.38
6614	239.49
6615	277.53
6616	332.50
6617	457.21
6618	494.57
6619	662.46
6620	1057.34
6621	515.43
6622	518.94
6623	58.24
6624	45.64
6625	42.61
6626	27.39
6627	30.43
6628	27.39
6629	2031.60
6630	2049.40
6631	650.61
6632	245.37
6633	209.99
6634	279.98
6635	264.76
6636	206.94
6637	240.42
6638	164.34
6639	179.55
6640	201.70
6641	300.09
6642	359.39
6643	436.95
6644	870.54
6645	425.48
6646	521.75
6647	48.69
6648	39.83
6649	37.18
6650	23.89
6651	45.22
6652	64.34
6653	2675.02
6654	2458.49
6655	1598.72
6656	1300.57
6657	1160.97
6658	1128.63
6659	1054.68
6660	934.70
6661	983.12
6662	1076.41
6663	1234.90
6664	1462.70
6665	1650.62
6666	1647.70
6667	1723.25
6668	2056.49
6669	1400.38
6670	1418.95
6671	133.41
6672	165.72
6673	173.41
6674	165.80
6675	181.83
6676	182.99
6677	4322.62
6678	3738.69
6679	2723.80
6680	2419.06
6681	2084.10
6682	1913.40
6683	1750.62
6684	1833.03
6685	1896.26
6686	1924.61
6687	2171.77
6688	2516.10
6689	2778.95
6690	2730.61
6691	2473.50
6692	2865.60
6693	2198.42
6694	2174.48
6695	195.61
6696	195.89
6697	196.71
6698	181.55
6699	185.80
6700	186.06
6701	4792.65
6702	3968.92
6703	2808.41
6704	2424.60
6705	2186.34
6706	1983.90
6707	1796.55
6708	1702.44
6709	1789.34
6710	1908.85
6711	1996.03
6712	2208.40
6713	2332.58
6714	2325.49
6715	2278.42
6716	2665.17
6717	2074.36
6718	2174.55
6719	182.33
6720	186.55
6721	187.60
6722	171.28
6723	174.89
6724	176.73
6725	4726.02
6726	3864.39
6727	2778.62
6728	2041.66
6729	1496.51
6730	1207.36
6731	844.15
6732	716.92
6733	749.27
6734	798.66
6735	979.94
6736	1355.55
6737	1688.19
6738	1683.99
6739	1609.58
6740	2089.77
6741	1455.97
6742	1460.91
6743	124.04
6744	142.56
6745	148.77
6746	141.69
6747	155.24
6748	158.72
6749	4155.51
6750	3457.36
6751	2240.02
6752	1497.53
6753	1154.97
6754	956.28
6755	542.20
6756	391.64
6757	450.61
6758	477.68
6759	577.39
6760	913.94
6761	1218.34
6762	1309.31
6763	1418.84
6764	1807.67
6765	1303.39
6766	1388.25
6767	130.37
6768	141.04
6769	140.19
6770	133.50
6771	146.71
6772	151.39
6773	3958.55
6774	3276.49
6775	2398.40
6776	2123.99
6777	1987.77
6778	1829.88
6779	1637.84
6780	1442.09
6781	1332.90
6782	992.73
6783	1039.71
6784	1472.94
6785	1744.73
6786	1673.06
6787	1601.12
6788	2060.27
6789	1473.96
6790	1500.62
6791	122.98
6792	135.85
6793	143.98
6794	137.43
6795	149.06
6796	155.63
6797	4122.99
6798	3311.01
6799	2330.42
6800	2035.68
6801	1860.80
6802	1704.95
6803	1548.36
6804	1408.71
6805	1428.00
6806	1448.53
6807	1623.00
6808	1814.06
6809	1925.25
6810	1852.87
6811	1687.79
6812	2155.85
6813	1541.12
6814	1517.22
6815	123.67
6816	151.35
6817	160.98
6818	151.46
6819	162.68
6820	164.68
6821	4257.05
6822	3480.80
6823	2079.45
6824	1183.41
6825	1084.17
6826	981.27
6827	741.15
6828	821.65
6829	758.33
6830	655.30
6831	1106.68
6832	1542.20
6833	2054.07
6834	2061.13
6835	1920.70
6836	2355.59
6837	1739.29
6838	1766.08
6839	162.65
6840	170.20
6841	171.92
6842	162.91
6843	174.11
6844	172.78
6845	4266.44
6846	3564.58
6847	2329.92
6848	1656.51
6849	1112.19
6850	911.44
6851	707.13
6852	585.09
6853	518.24
6854	515.61
6855	815.66
6856	1332.32
6857	1588.56
6858	1686.47
6859	1719.16
6860	2149.67
6861	1546.25
6862	1633.47
6863	153.09
6864	157.38
6865	166.37
6866	160.55
6867	172.09
6868	177.74
6869	4528.61
6870	3700.35
6871	2463.31
6872	1702.01
6873	1237.28
6874	1024.81
6875	1139.24
6876	1108.45
6877	813.28
6878	739.39
6879	897.97
6880	1099.04
6881	1255.20
6882	1271.54
6883	1298.31
6884	1673.19
6885	1038.15
6886	1162.32
6887	92.15
6888	109.13
6889	117.13
6890	119.25
6891	137.62
6892	146.47
6893	4035.74
6894	3387.54
6895	2316.76
6896	1188.03
6897	694.85
6898	494.51
6899	325.51
6900	262.31
6901	340.21
6902	358.52
6903	444.13
6904	749.48
6905	1073.05
6906	1168.74
6907	1366.87
6908	1880.79
6909	1427.37
6910	1512.20
6911	136.60
6912	169.37
6913	186.45
6914	179.09
6915	183.72
6916	185.31
6917	4747.74
6918	3994.25
6919	2434.82
6920	1324.18
6921	860.95
6922	738.50
6923	529.32
6924	369.89
6925	399.96
6926	389.09
6927	481.61
6928	793.67
6929	995.73
6930	1082.58
6931	1238.04
6932	1596.13
6933	964.44
6934	933.55
6935	78.80
6936	99.61
6937	104.36
6938	95.49
6939	100.62
6940	101.25
6941	2614.75
6942	2387.84
6943	1396.20
6944	867.88
6945	640.69
6946	591.49
6947	490.16
6948	416.07
6949	427.79
6950	367.01
6951	513.38
6952	776.96
6953	910.96
6954	916.70
6955	1251.05
6956	1727.71
6957	1120.87
6958	1271.47
6959	126.28
6960	149.54
6961	154.09
6962	143.77
6963	146.93
6964	149.61
6965	3816.67
6966	3287.01
6967	2085.76
6968	999.85
6969	664.01
6970	619.50
6971	555.37
6972	429.78
6973	478.13
6974	471.22
6975	599.99
6976	883.50
6977	1367.98
6978	1582.22
6979	1670.48
6980	2139.02
6981	1721.92
6982	2054.02
6983	198.19
6984	217.13
6985	232.84
6986	230.33
6987	241.69
6988	244.18
6989	4800.00
6990	4800.00
6991	3093.11
6992	1895.58
6993	1052.03
6994	991.53
6995	836.11
6996	582.33
6997	584.55
6998	568.36
6999	631.69
7000	972.92
7001	1415.81
7002	1621.16
7003	1780.19
7004	2130.34
7005	1559.18
7006	1659.25
7007	164.55
7008	199.29
7009	212.28
7010	203.53
7011	213.41
7012	217.92
7013	4800.00
7014	4477.90
7015	2889.82
7016	2042.70
7017	2110.82
7018	1674.56
7019	1506.91
7020	1178.11
7021	865.75
7022	653.39
7023	731.28
7024	1444.85
7025	1987.96
7026	2354.46
7027	2468.45
7028	2928.65
7029	2445.42
7030	2584.65
7031	237.56
7032	228.17
7033	225.49
7034	211.81
7035	216.91
7036	214.37
7037	4800.00
7038	4428.74
7039	3195.59
7040	2575.41
7041	1979.68
7042	1676.37
7043	1344.82
7044	921.08
7045	1008.61
7046	1128.58
7047	1190.72
7048	1531.73
7049	1798.87
7050	1816.20
7051	1824.89
7052	2273.64
7053	1629.16
7054	1691.78
7055	151.38
7056	157.84
7057	162.45
7058	150.74
7059	158.35
7060	158.36
7061	4137.33
7062	3469.10
7063	2396.78
7064	1742.43
7065	1363.50
7066	1216.01
7067	992.98
7068	828.16
7069	1211.84
7070	1361.37
7071	1488.72
7072	1641.98
7073	1709.66
7074	1623.30
7075	1545.54
7076	1971.81
7077	1300.86
7078	1318.67
7079	116.77
7080	139.37
7081	149.63
7082	135.24
7083	140.78
7084	145.97
7085	3819.75
7086	3204.04
7087	1967.10
7088	1292.66
7089	962.39
7090	889.31
7091	796.14
7092	655.93
7093	631.05
7094	649.96
7095	897.60
7096	1244.11
7097	1472.75
7098	1493.17
7099	1436.73
7100	1825.09
7101	1204.23
7102	1192.25
7103	105.48
7104	130.95
7105	130.71
7106	114.23
7107	122.72
7108	125.27
7109	3323.10
7110	2919.46
7111	1538.23
7112	619.59
7113	385.90
7114	406.38
7115	441.70
7116	376.25
7117	494.94
7118	640.18
7119	905.78
7120	1304.64
7121	1525.09
7122	1510.12
7123	1619.88
7124	1984.07
7125	1470.73
7126	1596.90
7127	160.45
7128	151.72
7129	150.24
7130	129.79
7131	128.62
7132	129.71
7133	3395.56
7134	2908.10
7135	1799.56
7136	1241.14
7137	869.43
7138	958.37
7139	924.47
7140	673.36
7141	619.83
7142	632.47
7143	748.27
7144	1224.49
7145	1480.84
7146	1529.36
7147	1599.34
7148	1902.95
7149	1476.31
7150	1692.79
7151	154.36
7152	186.87
7153	198.17
7154	183.01
7155	192.86
7156	212.18
7157	4800.00
7158	4273.04
7159	2823.89
7160	1812.12
7161	1095.59
7162	1263.44
7163	1270.60
7164	1203.18
7165	1254.46
7166	1359.99
7167	2013.86
7168	2462.19
7169	2493.90
7170	2364.69
7171	2335.65
7172	2901.07
7173	2359.61
7174	2373.49
7175	214.28
7176	242.58
7177	247.25
7178	239.38
7179	264.10
7180	267.07
7181	4800.00
7182	4800.00
7183	3694.19
7184	3392.59
7185	3138.34
7186	3092.26
7187	2862.72
7188	2525.53
7189	2464.20
7190	2293.68
7191	2217.87
7192	2282.21
7193	2340.99
7194	2305.65
7195	2210.57
7196	2626.64
7197	1915.28
7198	1875.41
7199	168.44
7200	148.50
7201	148.99
7202	141.00
7203	151.48
7204	152.67
7205	4143.17
7206	3390.33
7207	2472.41
7208	2031.18
7209	1778.56
7210	1604.30
7211	1378.14
7212	1286.18
7213	1401.70
7214	1169.69
7215	1420.58
7216	1844.60
7217	1924.79
7218	1778.98
7219	1759.60
7220	2177.43
7221	1573.09
7222	1858.42
7223	137.91
7224	146.97
7225	155.33
7226	146.63
7227	151.58
7228	152.23
7229	4139.09
7230	3483.43
7231	2543.50
7232	2340.05
7233	1861.00
7234	1291.45
7235	991.08
7236	831.09
7237	732.19
7238	681.44
7239	967.50
7240	1825.26
7241	2331.11
7242	2213.33
7243	2187.26
7244	2580.55
7245	2092.87
7246	2201.54
7247	210.02
7248	222.85
7249	217.45
7250	209.73
7251	228.65
7252	230.73
7253	4800.00
7254	4589.12
7255	3458.36
7256	3262.08
7257	3208.04
7258	2894.63
7259	2203.69
7260	2270.25
7261	2055.13
7262	2017.56
7263	2361.60
7264	2801.64
7265	2867.53
7266	2786.72
7267	2818.90
7268	3165.79
7269	2443.61
7270	2471.08
7271	204.20
7272	225.30
7273	236.15
7274	234.31
7275	250.37
7276	253.83
7277	4800.00
7278	4800.00
7279	4017.06
7280	3364.84
7281	2758.88
7282	2531.74
7283	2158.84
7284	1788.48
7285	1782.62
7286	1909.57
7287	2422.87
7288	2720.46
7289	2866.99
7290	2868.05
7291	2800.51
7292	3120.73
7293	2442.92
7294	2461.50
7295	192.51
7296	186.14
7297	187.87
7298	176.43
7299	185.51
7300	188.17
7301	4800.00
7302	4189.70
7303	3089.99
7304	2592.84
7305	2178.33
7306	1919.70
7307	1743.05
7308	1975.97
7309	2116.12
7310	1897.85
7311	2119.75
7312	2323.52
7313	2393.87
7314	2310.76
7315	2152.70
7316	2501.20
7317	1905.67
7318	2009.34
7319	165.90
7320	171.04
7321	182.34
7322	180.37
7323	187.66
7324	189.93
7325	4800.00
7326	3909.33
7327	2829.84
7328	2331.79
7329	1912.68
7330	1678.14
7331	1420.36
7332	1035.99
7333	1205.42
7334	1422.99
7335	1836.40
7336	2163.15
7337	2260.24
7338	2115.73
7339	1993.27
7340	2560.43
7341	2104.64
7342	2347.17
7343	196.76
7344	228.11
7345	231.98
7346	214.69
7347	218.83
7348	216.94
7349	4800.00
7350	4681.94
7351	3432.47
7352	2802.06
7353	2117.07
7354	1821.02
7355	1517.44
7356	1283.03
7357	1186.34
7358	1123.08
7359	1094.64
7360	1709.43
7361	1945.18
7362	1871.58
7363	1721.42
7364	2159.04
7365	1539.59
7366	1544.93
7367	139.70
7368	151.17
7369	162.64
7370	156.89
7371	175.14
7372	186.29
7373	4761.93
7374	3936.95
7375	2890.47
7376	2250.69
7377	1791.46
7378	1909.86
7379	1849.91
7380	1664.09
7381	1775.89
7382	1836.83
7383	1947.58
7384	2088.39
7385	2129.43
7386	2134.31
7387	2116.41
7388	2531.31
7389	1908.69
7390	2001.10
7391	168.64
7392	168.42
7393	177.65
7394	173.53
7395	178.91
7396	179.83
7397	4800.00
7398	3979.99
7399	2879.83
7400	2066.84
7401	1234.98
7402	1016.75
7403	898.13
7404	728.48
7405	638.68
7406	770.08
7407	1005.67
7408	1536.77
7409	1936.53
7410	1974.62
7411	1985.10
7412	2432.59
7413	1898.54
7414	2236.00
7415	188.03
7416	197.12
7417	200.94
7418	195.72
7419	209.24
7420	212.91
7421	4800.00
7422	4589.15
7423	3490.24
7424	2894.22
7425	2025.72
7426	1725.66
7427	1703.72
7428	1590.72
7429	1627.76
7430	1687.98
7431	2016.52
7432	2324.60
7433	2595.85
7434	2626.46
7435	2609.04
7436	3030.23
7437	2452.56
7438	2638.82
7439	210.64
7440	222.31
7441	225.54
7442	212.45
7443	220.64
7444	222.79
7445	4800.00
7446	4573.64
7447	3348.69
7448	2984.33
7449	2690.12
7450	2464.60
7451	2236.36
7452	1763.14
7453	2054.50
7454	2220.48
7455	2441.79
7456	2583.55
7457	2610.17
7458	2487.97
7459	2407.76
7460	2817.89
7461	2238.97
7462	2333.49
7463	180.32
7464	190.43
7465	194.56
7466	180.73
7467	185.08
7468	183.30
7469	4800.00
7470	4099.12
7471	3118.05
7472	2556.92
7473	2053.22
7474	1766.08
7475	1546.20
7476	1366.99
7477	1426.22
7478	1506.95
7479	1739.18
7480	2171.61
7481	2352.49
7482	2227.02
7483	2122.53
7484	2510.40
7485	1861.90
7486	1922.99
7487	158.23
7488	172.74
7489	180.19
7490	173.55
7491	182.75
7492	180.94
7493	4719.36
7494	3955.40
7495	2966.42
7496	2477.24
7497	2101.50
7498	1916.78
7499	1700.15
7500	1551.13
7501	1663.97
7502	1759.28
7503	2048.72
7504	2258.92
7505	2301.40
7506	2180.83
7507	2242.08
7508	2780.33
7509	2191.96
7510	2300.49
7511	191.11
7512	206.95
7513	209.23
7514	194.01
7515	201.38
7516	199.54
7517	4800.00
7518	4233.96
7519	3170.46
7520	2789.56
7521	2085.81
7522	1807.09
7523	1640.60
7524	1691.73
7525	1283.38
7526	1461.58
7527	1837.68
7528	2353.91
7529	2492.89
7530	2535.44
7531	2522.78
7532	2987.27
7533	2415.48
7534	2501.41
7535	207.16
7536	199.92
7537	197.25
7538	180.51
7539	185.52
7540	185.10
7541	4800.00
7542	4071.15
7543	3089.76
7544	2626.80
7545	2132.95
7546	1717.37
7547	1241.68
7548	1147.24
7549	1208.74
7550	1227.89
7551	1501.52
7552	1741.91
7553	1793.12
7554	1792.51
7555	1810.35
7556	2285.52
7557	1660.56
7558	1674.77
7559	145.82
7560	164.46
7561	167.96
7562	159.57
7563	168.67
7564	168.52
7565	4636.62
7566	3839.65
7567	2756.93
7568	2271.25
7569	1744.28
7570	1178.00
7571	877.39
7572	682.78
7573	670.76
7574	668.19
7575	942.27
7576	1608.73
7577	2017.89
7578	2154.07
7579	2191.44
7580	2619.52
7581	2054.71
7582	2222.66
7583	195.49
7584	204.32
7585	212.05
7586	207.33
7587	219.98
7588	224.20
7589	4800.00
7590	4559.90
7591	3524.42
7592	3004.21
7593	1725.30
7594	1587.15
7595	1641.78
7596	1750.53
7597	1642.97
7598	1840.26
7599	2278.28
7600	2539.17
7601	2666.80
7602	2598.05
7603	2546.29
7604	2979.57
7605	2459.54
7606	2577.42
7607	214.96
7608	221.77
7609	227.97
7610	215.44
7611	224.80
7612	232.00
7613	4800.00
7614	4800.00
7615	3613.05
7616	3353.95
7617	2856.36
7618	2898.73
7619	2717.35
7620	2531.76
7621	2571.80
7622	2478.71
7623	2517.30
7624	2597.62
7625	2521.27
7626	2332.68
7627	2187.80
7628	2569.18
7629	1954.63
7630	2083.10
7631	177.17
7632	202.12
7633	208.65
7634	194.24
7635	205.13
7636	206.77
7637	4800.00
7638	4450.85
7639	3413.71
7640	2943.72
7641	2571.50
7642	2341.36
7643	2025.95
7644	1853.07
7645	2177.12
7646	2319.68
7647	2462.34
7648	2454.59
7649	2482.30
7650	2379.10
7651	2241.49
7652	2627.73
7653	1996.21
7654	2066.88
7655	164.63
7656	172.84
7657	176.31
7658	165.39
7659	170.24
7660	166.25
7661	4541.44
7662	3728.12
7663	2737.83
7664	2107.31
7665	1603.88
7666	1631.83
7667	1452.98
7668	1238.53
7669	1111.06
7670	1152.28
7671	1607.78
7672	2000.22
7673	2101.03
7674	1946.02
7675	1848.77
7676	2283.40
7677	1678.58
7678	1736.08
7679	150.14
7680	165.09
7681	175.94
7682	177.19
7683	192.64
7684	193.22
7685	4800.00
7686	4259.65
7687	3288.46
7688	2908.38
7689	2351.00
7690	1891.27
7691	1546.42
7692	1306.55
7693	1218.30
7694	1416.59
7695	1819.86
7696	2437.61
7697	2705.68
7698	2858.11
7699	2864.94
7700	3176.32
7701	2584.35
7702	2866.07
7703	248.83
7704	266.60
7705	293.66
7706	294.42
7707	356.41
7708	476.89
7709	4800.00
7710	4800.00
7711	4800.00
7712	4526.18
7713	3543.64
7714	2852.83
7715	2489.04
7716	2202.21
7717	1986.34
7718	2108.05
7719	2596.67
7720	3309.91
7721	3415.09
7722	3340.59
7723	3315.76
7724	3526.69
7725	2862.19
7726	2993.91
7727	237.66
7728	254.20
7729	260.74
7730	248.70
7731	267.36
7732	280.12
7733	4800.00
7734	4800.00
7735	4393.21
7736	4246.35
7737	4092.01
7738	3839.46
7739	3650.63
7740	2947.36
7741	2481.90
7742	2121.02
7743	2771.23
7744	3182.73
7745	3247.79
7746	3107.24
7747	3094.73
7748	3550.76
7749	2949.90
7750	3186.62
7751	269.21
7752	288.23
7753	301.35
7754	289.51
7755	308.12
7756	394.66
7757	4800.00
7758	4800.00
7759	4800.00
7760	4366.25
7761	2984.53
7762	2415.71
7763	2011.72
7764	1698.44
7765	1587.52
7766	1562.68
7767	2183.45
7768	2945.24
7769	3400.01
7770	3511.91
7771	3556.82
7772	4029.68
7773	3547.11
7774	3712.91
7775	309.56
7776	309.04
7777	333.16
7778	432.48
7779	541.04
7780	695.52
7781	4800.00
7782	4800.00
7783	4800.00
7784	4800.00
7785	3852.41
7786	3180.41
7787	2453.42
7788	2176.70
7789	1967.88
7790	2088.62
7791	2749.35
7792	3421.81
7793	3757.07
7794	3804.95
7795	3772.21
7796	4157.93
7797	3796.40
7798	4025.21
7799	313.93
7800	333.76
7801	361.19
7802	496.96
7803	681.01
7804	862.28
7805	4800.00
7806	4800.00
7807	4800.00
7808	4800.00
7809	4470.22
7810	3959.56
7811	3487.49
7812	3233.37
7813	3441.44
7814	3572.96
7815	3807.26
7816	3955.01
7817	3992.59
7818	3820.69
7819	3683.01
7820	3977.86
7821	3401.21
7822	3493.70
7823	270.31
7824	281.61
7825	287.87
7826	282.35
7827	321.68
7828	398.24
7829	4800.00
7830	4800.00
7831	4800.00
7832	4529.19
7833	4193.40
7834	4060.34
7835	3840.71
7836	3649.14
7837	3645.51
7838	3615.45
7839	3720.91
7840	3647.21
7841	3619.50
7842	3509.11
7843	3324.61
7844	3565.29
7845	2850.27
7846	2934.98
7847	226.59
7848	227.89
7849	227.02
7850	215.03
7851	221.04
7852	218.85
7853	4800.00
7854	4800.00
7855	3654.02
7856	3337.29
7857	3017.28
7858	2886.80
7859	2691.04
7860	2535.12
7861	2527.90
7862	2308.88
7863	2473.15
7864	2621.17
7865	2573.31
7866	2525.67
7867	2474.05
7868	2983.51
7869	2483.05
7870	2717.63
7871	215.69
7872	229.77
7873	234.06
7874	220.81
7875	228.57
7876	227.50
7877	4800.00
7878	4800.00
7879	4058.89
7880	3717.76
7881	3154.50
7882	2774.19
7883	2487.93
7884	2139.43
7885	2170.21
7886	2250.93
7887	2430.71
7888	2641.52
7889	2823.37
7890	2911.61
7891	3050.28
7892	3517.73
7893	2960.99
7894	3090.89
7895	253.02
7896	264.36
7897	268.09
7898	258.75
7899	271.75
7900	299.19
7901	4800.00
7902	4800.00
7903	4482.59
7904	4137.23
7905	3589.02
7906	3205.38
7907	2834.39
7908	2580.62
7909	2560.33
7910	2305.15
7911	2636.01
7912	2928.08
7913	3126.62
7914	3168.12
7915	3267.93
7916	3677.99
7917	3139.34
7918	3322.27
7919	261.50
7920	279.66
7921	287.38
7922	279.98
7923	321.79
7924	439.66
7925	4800.00
7926	4800.00
7927	4800.00
7928	4776.86
7929	4294.41
7930	3908.77
7931	3494.19
7932	3085.22
7933	2999.44
7934	3039.35
7935	3316.80
7936	3542.49
7937	3676.28
7938	3639.79
7939	3645.38
7940	3939.30
7941	3477.93
7942	3704.70
7943	295.02
7944	312.94
7945	322.61
7946	336.76
7947	475.17
7948	612.87
7949	4800.00
7950	4800.00
7951	4800.00
7952	4800.00
7953	4800.00
7954	4778.40
7955	4557.26
7956	4252.82
7957	4165.02
7958	4028.84
7959	4165.04
7960	4169.38
7961	4071.85
7962	3910.61
7963	3834.61
7964	4143.70
7965	3562.40
7966	3679.74
7967	290.74
7968	296.72
7969	311.67
7970	348.83
7971	482.04
7972	609.62
7973	4800.00
7974	4800.00
7975	4800.00
7976	4800.00
7977	4800.00
7978	4442.27
7979	4176.17
7980	4291.23
7981	4279.13
7982	4187.77
7983	4310.14
7984	4323.20
7985	4249.42
7986	4038.02
7987	3851.53
7988	4141.59
7989	3536.57
7990	3570.59
7991	262.62
7992	274.19
7993	273.87
7994	262.59
7995	269.75
7996	297.05
7997	4800.00
7998	4800.00
7999	4421.08
8000	4106.45
8001	3659.00
8002	3452.54
8003	3447.48
8004	3357.15
8005	3394.34
8006	3353.47
8007	3484.22
8008	3556.10
8009	3557.66
8010	3345.73
8011	3168.18
8012	3418.82
8013	2762.48
8014	2851.29
8015	226.36
8016	236.85
8017	242.12
8018	224.83
8019	234.87
8020	231.29
8021	4800.00
8022	4800.00
8023	3805.27
8024	3544.84
8025	3219.40
8026	3049.81
8027	2693.02
8028	2077.06
8029	1988.85
8030	2043.38
8031	2439.92
8032	2806.91
8033	2922.46
8034	2924.58
8035	2844.18
8036	3216.51
8037	2559.87
8038	2615.35
8039	223.00
8040	229.00
8041	231.63
8042	217.18
8043	227.46
8044	222.55
8045	4800.00
8046	4763.61
8047	3651.69
8048	3333.91
8049	2918.99
8050	2931.71
8051	2784.73
8052	2530.32
8053	2731.36
8054	2767.92
8055	2755.07
8056	2770.23
8057	2763.09
8058	2652.60
8059	2580.40
8060	2924.04
8061	2188.78
8062	2201.50
8063	191.45
8064	182.52
8065	184.85
8066	170.57
8067	182.09
8068	189.71
8069	4800.00
8070	4198.72
8071	3145.41
8072	2971.96
8073	2968.69
8074	2835.35
8075	2424.72
8076	2212.45
8077	1893.04
8078	2201.59
8079	2796.72
8080	3009.88
8081	3131.60
8082	3069.79
8083	2870.67
8084	3172.93
8085	2646.55
8086	2800.15
8087	220.26
8088	227.32
8089	230.81
8090	219.70
8091	221.73
8092	228.10
8093	4800.00
8094	4800.00
8095	3709.87
8096	3424.73
8097	2609.26
8098	2194.10
8099	1895.13
8100	1934.68
8101	2147.72
8102	2231.44
8103	2556.23
8104	2711.72
8105	2738.35
8106	2599.79
8107	2518.92
8108	2959.40
8109	2367.12
8110	2509.86
8111	217.54
8112	222.54
8113	223.99
8114	211.51
8115	215.97
8116	213.85
8117	4800.00
8118	4517.95
8119	3341.69
8120	3146.97
8121	2910.54
8122	2748.56
8123	2584.11
8124	2451.86
8125	2496.67
8126	2479.01
8127	2567.25
8128	2577.57
8129	2559.61
8130	2425.28
8131	2286.35
8132	2646.39
8133	2041.42
8134	2087.87
8135	164.07
8136	173.77
8137	177.44
8138	171.79
8139	187.32
8140	184.54
8141	4800.00
8142	3964.97
8143	3014.05
8144	2766.12
8145	1989.59
8146	1710.53
8147	1749.12
8148	1736.04
8149	2114.76
8150	2320.52
8151	2501.56
8152	2546.47
8153	2528.50
8154	2380.74
8155	2270.04
8156	2668.75
8157	2036.53
8158	2077.18
8159	165.19
8160	186.92
8161	187.66
8162	172.35
8163	180.72
8164	176.71
8165	4484.19
8166	3693.14
8167	2628.90
8168	2395.30
8169	1798.63
8170	1634.89
8171	1400.95
8172	1125.18
8173	1332.31
8174	1728.76
8175	2363.48
8176	2535.09
8177	2549.28
8178	2460.43
8179	2455.25
8180	2812.26
8181	2154.94
8182	2221.80
8183	201.91
8184	223.87
8185	226.31
8186	204.80
8187	211.16
8188	210.40
8189	4800.00
8190	4482.96
8191	3435.74
8192	3227.09
8193	2768.17
8194	2566.79
8195	2377.68
8196	2454.28
8197	2447.41
8198	2399.55
8199	2714.04
8200	3022.83
8201	3080.50
8202	3065.97
8203	2986.93
8204	3318.54
8205	2677.98
8206	2870.03
8207	262.28
8208	279.79
8209	301.10
8210	298.84
8211	368.84
8212	481.46
8213	4800.00
8214	4800.00
8215	4800.00
8216	4800.00
8217	4479.32
8218	4025.14
8219	3655.14
8220	3394.32
8221	3535.90
8222	3550.56
8223	3720.74
8224	3791.30
8225	3723.25
8226	3610.02
8227	3575.04
8228	3838.75
8229	3128.59
8230	3160.22
8231	253.66
8232	258.42
8233	262.34
8234	253.87
8235	267.30
8236	297.81
8237	4800.00
8238	4800.00
8239	4555.46
8240	4292.99
8241	3872.57
8242	3508.11
8243	3085.38
8244	2807.82
8245	2906.78
8246	2936.86
8247	3274.01
8248	3431.85
8249	3503.30
8250	3449.06
8251	3398.79
8252	3785.33
8253	3205.60
8254	3385.61
8255	268.02
8256	272.70
8257	281.11
8258	276.57
8259	308.06
8260	391.84
8261	4800.00
8262	4800.00
8263	4800.00
8264	4503.47
8265	4325.68
8266	4146.74
8267	3854.56
8268	3626.23
8269	3597.90
8270	3613.60
8271	3682.39
8272	3619.34
8273	3557.20
8274	3368.40
8275	3227.46
8276	3529.86
8277	2931.98
8278	3071.06
8279	239.87
8280	255.89
8281	262.87
8282	248.03
8283	261.36
8284	270.67
8285	4800.00
8286	4800.00
8287	4547.44
8288	4388.18
8289	4093.91
8290	4090.78
8291	3882.75
8292	3713.24
8293	3791.39
8294	3745.86
8295	3791.73
8296	3778.57
8297	3891.56
8298	3802.43
8299	3673.30
8300	3983.67
8301	3343.72
8302	3445.82
8303	280.72
8304	283.21
8305	287.40
8306	277.09
8307	341.43
8308	433.66
8309	4800.00
8310	4800.00
8311	4800.00
8312	4730.36
8313	4515.94
8314	4404.08
8315	4158.96
8316	3692.49
8317	3614.96
8318	3673.11
8319	3939.15
8320	4028.65
8321	4006.59
8322	3917.21
8323	3858.26
8324	4103.15
8325	3574.13
8326	3793.32
8327	278.81
8328	305.17
8329	305.61
8330	293.63
8331	384.02
8332	480.29
8333	4800.00
8334	4800.00
8335	4800.00
8336	4800.00
8337	4665.77
8338	4624.90
8339	4470.50
8340	4303.31
8341	4381.21
8342	4326.69
8343	4369.48
8344	4360.50
8345	4424.03
8346	4293.58
8347	4172.56
8348	4521.32
8349	4081.96
8350	4424.32
8351	364.22
8352	367.31
8353	418.13
8354	535.38
8355	670.52
8356	723.83
8357	4800.00
8358	4800.00
8359	4800.00
8360	4800.00
8361	4800.00
8362	4514.91
8363	4225.14
8364	3868.04
8365	3650.25
8366	3482.27
8367	3981.49
8368	4307.63
8369	4263.26
8370	4324.80
8371	4260.32
8372	4347.77
8373	3659.89
8374	3737.20
8375	297.29
8376	298.62
8377	306.49
8378	295.30
8379	402.47
8380	521.24
8381	4800.00
8382	4800.00
8383	4800.00
8384	4800.00
8385	4584.57
8386	4061.84
8387	3701.66
8388	3485.81
8389	3640.16
8390	3380.69
8391	3921.00
8392	4231.01
8393	4261.55
8394	4173.41
8395	4014.08
8396	4186.36
8397	3611.82
8398	3732.88
8399	282.68
8400	290.65
8401	297.75
8402	314.30
8403	425.03
8404	521.26
8405	4800.00
8406	4800.00
8407	4800.00
8408	4800.00
8409	4800.00
8410	4800.00
8411	4800.00
8412	4674.44
8413	4699.36
8414	4762.63
8415	4681.37
8416	4586.01
8417	4496.59
8418	4466.96
8419	4439.14
8420	4750.04
8421	4264.57
8422	4192.81
8423	312.25
8424	326.29
8425	332.25
8426	403.80
8427	486.98
8428	597.31
8429	4800.00
8430	4800.00
8431	4800.00
8432	4800.00
8433	4800.00
8434	4608.75
8435	4270.24
8436	3971.36
8437	4019.08
8438	3962.98
8439	4021.70
8440	3983.32
8441	3878.02
8442	3695.19
8443	3558.55
8444	3837.81
8445	3200.44
8446	3262.42
8447	240.85
8448	239.55
8449	248.80
8450	240.78
8451	249.51
8452	254.62
8453	4800.00
8454	4800.00
8455	4443.70
8456	4172.23
8457	3720.15
8458	3498.45
8459	3298.18
8460	3037.26
8461	3070.01
8462	3145.07
8463	3452.14
8464	3509.31
8465	3452.35
8466	3309.28
8467	3253.93
8468	3635.68
8469	3052.30
8470	3158.39
8471	241.90
8472	260.60
8473	256.03
8474	243.11
8475	252.03
8476	249.02
8477	4800.00
8478	4800.00
8479	4335.07
8480	4277.76
8481	4157.14
8482	4036.63
8483	3816.82
8484	3564.96
8485	3710.25
8486	3818.68
8487	3951.70
8488	4054.27
8489	4212.86
8490	4023.85
8491	3889.21
8492	4213.47
8493	3652.93
8494	3849.22
8495	307.70
8496	332.14
8497	338.42
8498	368.31
8499	488.80
8500	633.22
8501	4800.00
8502	4800.00
8503	4800.00
8504	4800.00
8505	4800.00
8506	4750.31
8507	4330.95
8508	3884.44
8509	3847.24
8510	4025.43
8511	4287.60
8512	4315.05
8513	4316.78
8514	4216.79
8515	4242.13
8516	4459.45
8517	3841.09
8518	3856.14
8519	304.39
8520	302.44
8521	306.48
8522	318.83
8523	415.67
8524	431.69
8525	4800.00
8526	4800.00
8527	4800.00
8528	4656.40
8529	4106.92
8530	3912.37
8531	3693.58
8532	3471.79
8533	3415.11
8534	3143.76
8535	3206.85
8536	3332.47
8537	3231.31
8538	3092.25
8539	2892.17
8540	3216.21
8541	2517.83
8542	2505.06
8543	190.75
8544	209.33
8545	209.04
8546	188.50
8547	195.24
8548	192.54
8549	4800.00
8550	4251.62
8551	3259.40
8552	2972.98
8553	2636.12
8554	2489.07
8555	2382.50
8556	1834.97
8557	1890.48
8558	2048.25
8559	2169.44
8560	2205.27
8561	2238.02
8562	2166.60
8563	2287.75
8564	2751.34
8565	2246.91
8566	2487.61
8567	218.32
8568	237.58
8569	251.69
8570	243.32
8571	254.80
8572	253.90
8573	4800.00
8574	4800.00
8575	4329.65
8576	4121.13
8577	4034.93
8578	4030.43
8579	3966.61
8580	3787.23
8581	3801.53
8582	3717.15
8583	3889.09
8584	3928.77
8585	3966.23
8586	3947.34
8587	3858.75
8588	4051.21
8589	3395.29
8590	3408.66
8591	277.30
8592	267.40
8593	265.52
8594	255.71
8595	263.66
8596	293.59
8597	4800.00
8598	4800.00
8599	4575.69
8600	4334.24
8601	3525.48
8602	3029.45
8603	2909.29
8604	2957.38
8605	2929.54
8606	3119.87
8607	3497.87
8608	3710.21
8609	3850.03
8610	3788.63
8611	3656.82
8612	3974.63
8613	3659.44
8614	3877.99
8615	297.13
8616	323.01
8617	325.70
8618	309.42
8619	365.53
8620	412.01
8621	4800.00
8622	4800.00
8623	4762.94
8624	4430.05
8625	3943.14
8626	3559.69
8627	3507.01
8628	3516.81
8629	3689.34
8630	3668.42
8631	4047.23
8632	4244.15
8633	4299.67
8634	4038.45
8635	3974.59
8636	4332.78
8637	3762.07
8638	3915.63
8639	310.37
8640	303.60
8641	310.10
8642	350.04
8643	501.36
8644	652.28
8645	4800.00
8646	4800.00
8647	4800.00
8648	4800.00
8649	4665.69
8650	4008.26
8651	3975.95
8652	3919.37
8653	4000.69
8654	3964.95
8655	4235.89
8656	4390.74
8657	4421.39
8658	4270.53
8659	4263.02
8660	4671.56
8661	4289.71
8662	4357.77
8663	311.49
8664	293.55
8665	270.69
8666	236.75
8667	231.14
8668	227.03
8669	4800.00
8670	4800.00
8671	3765.20
8672	3528.92
8673	3368.08
8674	3248.64
8675	3129.91
8676	2750.69
8677	2648.00
8678	2616.25
8679	2843.25
8680	2982.57
8681	3033.45
8682	2907.02
8683	2768.18
8684	3299.33
8685	2781.79
8686	2759.17
8687	215.14
8688	237.96
8689	251.33
8690	246.78
8691	264.37
8692	286.37
8693	4800.00
8694	4800.00
8695	4721.02
8696	4366.85
8697	3791.28
8698	3552.76
8699	3303.75
8700	3036.12
8701	3022.52
8702	2716.74
8703	3112.98
8704	3574.40
8705	3700.86
8706	3681.98
8707	3661.19
8708	4078.97
8709	3523.61
8710	3634.83
8711	289.46
8712	296.82
8713	301.15
8714	289.19
8715	406.27
8716	536.37
8717	4800.00
8718	4800.00
8719	4800.00
8720	4800.00
8721	4636.41
8722	3963.94
8723	3247.94
8724	2677.00
8725	2712.69
8726	2914.47
8727	3421.25
8728	3806.49
8729	3863.72
8730	3805.77
8731	3831.12
8732	4243.76
8733	3691.19
8734	3868.41
8735	301.43
8736	331.51
8737	334.02
8738	365.02
8739	471.55
8740	555.03
8741	4800.00
8742	4800.00
8743	4800.00
8744	4800.00
8745	4508.92
8746	4246.07
8747	3974.13
8748	3861.60
8749	3990.12
8750	3931.25
8751	4044.14
8752	4157.15
8753	4204.32
8754	4071.32
8755	3953.06
8756	4144.55
8757	3475.17
8758	3621.72
8760	307.13
