Time [h]	NetworkElement(id=101).FluidTemperature [C]	NetworkElement(id=102).FluidTemperature [C]	NetworkElement(id=201).FluidTemperature [C]	NetworkElement(id=301).FluidTemperature [C]	NetworkElement(id=101).FluidMassFlux [kg/s]	NetworkElement(id=102).FluidMassFlux [kg/s]	NetworkElement(id=201).FluidMassFlux [kg/s]	NetworkElement(id=301).FluidMassFlux [kg/s]	NetworkElement(id=101).FlowElementHeatLoss [W]	NetworkElement(id=102).FlowElementHeatLoss [W]	NetworkElement(id=201).FlowElementHeatLoss [W]	NetworkElement(id=301).FlowElementHeatLoss [W]
0	40	40	40	40	0.767033	0.767033	0.767033	0.767033	1.19237e+06	627740	-0	-500
1	38.8266	38.8474	38.8616	39.0361	0.765197	0.765197	0.765197	0.765197	135.781	715.759	-0	-500
2	38.3803	38.4023	38.418	38.601	0.764508	0.764508	0.764508	0.764508	145.927	755.593	-0	-500
3	38.0389	38.058	38.0677	38.2365	0.763984	0.763984	0.763984	0.763984	107.706	644.225	-0	-500
4	37.8016	37.8201	37.8288	37.9926	0.763621	0.763621	0.763621	0.763621	101.293	619.134	-0	-500
5	37.506	37.5263	37.5387	37.7111	0.763172	0.763172	0.763172	0.763172	125.024	686.605	-0	-500
6	37.14	37.1609	37.1742	37.3504	0.762618	0.762618	0.762618	0.762618	130.797	706.678	-0	-500
7	36.8133	36.8329	36.8435	37.0136	0.762126	0.762126	0.762126	0.762126	113.366	656.732	-0	-500
8	36.5491	36.568	36.5773	36.7433	0.76173	0.76173	0.76173	0.76173	105.237	630.084	-0	-500
9	36.2741	36.2937	36.3045	36.4735	0.76132	0.76132	0.76132	0.76132	114.6	655.559	-0	-500
10	35.9628	35.983	35.9945	36.166	0.760857	0.760857	0.760857	0.760857	119.55	671.018	-0	-500
11	35.663	35.6826	35.6929	35.8621	0.760414	0.760414	0.760414	0.760414	111.984	649.597	-0	-500
12	35.3972	35.4164	35.4258	35.5923	0.760023	0.760023	0.760023	0.760023	106.065	630.988	-0	-500
13	35.1353	35.1547	35.1645	35.3317	0.759639	0.759639	0.759639	0.759639	108.964	638.119	-0	-500
14	34.858	34.8777	34.8879	35.0565	0.759234	0.759234	0.759234	0.759234	111.753	646.325	-0	-500
15	34.5839	34.6034	34.6131	34.7807	0.758836	0.758836	0.758836	0.758836	108.493	637.07	-0	-500
16	34.328	34.3473	34.3564	34.5224	0.758465	0.758465	0.758465	0.758465	104.649	625.199	-0	-500
17	34.0794	34.0986	34.1078	34.2736	0.758107	0.758107	0.758107	0.758107	104.927	625.12	-0	-500
18	33.826	33.8454	33.8547	34.0212	0.757743	0.757743	0.757743	0.757743	106.085	628.234	-0	-500
19	33.5744	33.5937	33.6028	33.7688	0.757382	0.757382	0.757382	0.757382	104.509	623.622	-0	-500
20	33.3331	33.3522	33.3609	33.5259	0.757038	0.757038	0.757038	0.757038	102.11	616.22	-0	-500
21	33.0983	33.1174	33.126	33.2907	0.756704	0.756704	0.756704	0.756704	101.531	613.937	-0	-500
22	32.8638	32.8829	32.8915	33.0563	0.756372	0.756372	0.756372	0.756372	101.686	614.055	-0	-500
23	32.6315	32.6506	32.659	32.8235	0.756044	0.756044	0.756044	0.756044	100.683	610.969	-0	-500
24	32.4057	32.4247	32.4329	32.5967	0.755727	0.755727	0.755727	0.755727	99.1099	606.071	-0	-500
25	32.1853	32.2043	32.2123	32.3758	0.755418	0.755418	0.755418	0.755418	98.302	603.287	-0	-500
26	31.9672	31.9862	31.9942	32.1576	0.755113	0.755113	0.755113	0.755113	97.9671	601.989	-0	-500
27	31.7519	31.7708	31.7786	31.9418	0.754813	0.754813	0.754813	0.754813	97.1715	599.451	-0	-500
28	31.5412	31.56	31.5677	31.7304	0.75452	0.75452	0.75452	0.75452	96.0383	595.878	-0	-500
29	31.335	31.3539	31.3614	31.5237	0.754234	0.754234	0.754234	0.754234	95.2166	593.151	-0	-500
30	31.1319	31.1507	31.1581	31.3203	0.753954	0.753954	0.753954	0.753954	94.6665	591.259	-0	-500
31	30.9317	30.9505	30.9578	31.1197	0.753678	0.753678	0.753678	0.753678	93.9419	588.915	-0	-500
32	30.7354	30.7541	30.7612	30.9228	0.753409	0.753409	0.753409	0.753409	93.0448	586.055	-0	-500
33	30.5429	30.5616	30.5686	30.7299	0.753145	0.753145	0.753145	0.753145	92.2766	583.542	-0	-500
34	30.3536	30.3722	30.3791	30.5402	0.752886	0.752886	0.752886	0.752886	91.6522	581.468	-0	-500
35	30.1672	30.1858	30.1927	30.3534	0.752633	0.752633	0.752633	0.752633	90.9684	579.251	-0	-500
36	29.9843	30.0029	30.0095	30.1701	0.752376	0.752376	0.752376	0.752376	90.2027	576.8	-0	-500
37	29.8048	29.8233	29.8299	29.9901	0.75203	0.75203	0.75203	0.75203	89.5209	574.466	-0	-500
38	29.6283	29.6468	29.6532	29.8133	0.751692	0.751692	0.751692	0.751692	88.9154	572.375	-0	-500
39	29.4547	29.4732	29.4795	29.6393	0.751361	0.751361	0.751361	0.751361	88.2905	570.247	-0	-500
40	29.2842	29.3027	29.3089	29.4685	0.751037	0.751037	0.751037	0.751037	87.6315	568.027	-0	-500
41	29.1168	29.1353	29.1414	29.3007	0.750719	0.750719	0.750719	0.750719	87.0014	565.89	-0	-500
42	28.9523	28.9708	28.9768	29.1359	0.750408	0.750408	0.750408	0.750408	86.4119	563.881	-0	-500
43	28.7906	28.809	28.815	28.9739	0.750104	0.750104	0.750104	0.750104	85.821	561.881	-0	-500
44	28.6318	28.6502	28.656	28.8147	0.749806	0.749806	0.749806	0.749806	85.219	559.855	-0	-500
45	28.4758	28.4941	28.4998	28.6583	0.749513	0.749513	0.749513	0.749513	84.6337	557.882	-0	-500
46	28.3224	28.3408	28.3464	28.5046	0.749227	0.749227	0.749227	0.749227	84.0722	555.985	-0	-500
47	28.1718	28.1901	28.1956	28.3537	0.748947	0.748947	0.748947	0.748947	83.5159	554.112	-0	-500
48	28.0238	28.042	28.0475	28.2053	0.748672	0.748672	0.748672	0.748672	82.9591	552.244	-0	-500
49	27.8783	27.8966	27.9019	28.0596	0.748403	0.748403	0.748403	0.748403	82.4141	550.416	-0	-500
50	27.7354	27.7537	27.7589	27.9164	0.748139	0.748139	0.748139	0.748139	81.8846	548.638	-0	-500
51	27.595	27.6133	27.6184	27.7757	0.747881	0.747881	0.747881	0.747881	81.3621	546.888	-0	-500
52	27.4571	27.4753	27.4804	27.6374	0.747628	0.747628	0.747628	0.747628	80.8441	545.157	-0	-500
53	27.3216	27.3397	27.3447	27.5016	0.747379	0.747379	0.747379	0.747379	80.3357	543.459	-0	-500
54	27.1884	27.2065	27.2114	27.3681	0.747136	0.747136	0.747136	0.747136	79.8386	541.8	-0	-500
55	27.0576	27.0757	27.0805	27.237	0.746898	0.746898	0.746898	0.746898	79.3491	540.168	-0	-500
56	26.929	26.9471	26.9518	27.1082	0.746664	0.746664	0.746664	0.746664	78.8658	538.56	-0	-500
57	26.8027	26.8208	26.8254	26.9816	0.746435	0.746435	0.746435	0.746435	78.3911	536.981	-0	-500
58	26.6786	26.6967	26.7012	26.8572	0.746211	0.746211	0.746211	0.746211	77.9256	535.433	-0	-500
59	26.5567	26.5747	26.5792	26.735	0.745991	0.745991	0.745991	0.745991	77.4676	533.913	-0	-500
60	26.4369	26.4549	26.4593	26.615	0.745775	0.745775	0.745775	0.745775	77.0163	532.417	-0	-500
61	26.3192	26.3372	26.3415	26.497	0.745564	0.745564	0.745564	0.745564	76.5727	530.948	-0	-500
62	26.2035	26.2215	26.2258	26.3811	0.745356	0.745356	0.745356	0.745356	76.1372	529.506	-0	-500
63	26.0899	26.1078	26.112	26.2672	0.745153	0.745153	0.745153	0.745153	75.7089	528.09	-0	-500
64	25.9782	25.9962	26.0003	26.1553	0.744954	0.744954	0.744954	0.744954	75.2874	526.698	-0	-500
65	25.8685	25.8864	25.8905	26.0454	0.744758	0.744758	0.744758	0.744758	74.873	525.33	-0	-500
66	25.7607	25.7786	25.7826	25.9373	0.744567	0.744567	0.744567	0.744567	74.4659	523.987	-0	-500
67	25.6549	25.6727	25.6766	25.8312	0.744379	0.744379	0.744379	0.744379	74.0655	522.668	-0	-500
68	25.5508	25.5687	25.5725	25.7269	0.744194	0.744194	0.744194	0.744194	73.6718	521.372	-0	-500
69	25.4486	25.4664	25.4702	25.6245	0.744014	0.744014	0.744014	0.744014	73.2847	520.099	-0	-500
70	25.3481	25.366	25.3697	25.5238	0.743836	0.743836	0.743836	0.743836	72.9042	518.848	-0	-500
71	25.2494	25.2672	25.2709	25.4249	0.743663	0.743663	0.743663	0.743663	72.5301	517.619	-0	-500
72	25.1525	25.1703	25.1738	25.3277	0.743492	0.743492	0.743492	0.743492	72.1623	516.412	-0	-500
73	25.0572	25.075	25.0785	25.2322	0.743325	0.743325	0.743325	0.743325	71.8007	515.227	-0	-500
74	24.9636	24.9813	24.9848	25.1384	0.743161	0.743161	0.743161	0.743161	71.4453	514.062	-0	-500
75	24.8716	24.8894	24.8928	25.0462	0.743	0.743	0.743	0.743	71.0959	512.918	-0	-500
76	24.7813	24.799	24.8023	24.9557	0.742842	0.742842	0.742842	0.742842	70.7523	511.794	-0	-500
77	24.6925	24.7102	24.7135	24.8667	0.742687	0.742687	0.742687	0.742687	70.4146	510.69	-0	-500
78	24.6052	24.6229	24.6262	24.7793	0.742535	0.742535	0.742535	0.742535	70.0827	509.605	-0	-500
79	24.5195	24.5372	24.5404	24.6934	0.742386	0.742386	0.742386	0.742386	69.7563	508.539	-0	-500
80	24.4353	24.453	24.4561	24.609	0.74224	0.74224	0.74224	0.74224	69.4355	507.492	-0	-500
81	24.3526	24.3702	24.3733	24.526	0.742097	0.742097	0.742097	0.742097	69.1201	506.464	-0	-500
82	24.2713	24.2889	24.2919	24.4446	0.741956	0.741956	0.741956	0.741956	68.8101	505.454	-0	-500
83	24.1914	24.209	24.212	24.3645	0.741818	0.741818	0.741818	0.741818	68.5054	504.461	-0	-500
84	24.1129	24.1305	24.1334	24.2858	0.741683	0.741683	0.741683	0.741683	68.2058	503.486	-0	-500
85	24.0358	24.0534	24.0562	24.2086	0.74155	0.74155	0.74155	0.74155	67.9114	502.528	-0	-500
86	23.96	23.9776	23.9804	24.1326	0.74142	0.74142	0.74142	0.74142	67.6219	501.587	-0	-500
87	23.8856	23.9031	23.9059	24.058	0.741292	0.741292	0.741292	0.741292	67.3374	500.663	-0	-500
88	23.8124	23.83	23.8327	23.9847	0.741166	0.741166	0.741166	0.741166	67.0578	499.755	-0	-500
89	23.7406	23.7581	23.7608	23.9127	0.741043	0.741043	0.741043	0.741043	66.7829	498.863	-0	-500
90	23.67	23.6875	23.6901	23.8419	0.740922	0.740922	0.740922	0.740922	66.5127	497.986	-0	-500
91	23.6006	23.6181	23.6207	23.7724	0.740804	0.740804	0.740804	0.740804	66.2471	497.125	-0	-500
92	23.5324	23.5499	23.5525	23.7041	0.740687	0.740687	0.740687	0.740687	65.986	496.279	-0	-500
93	23.4655	23.4829	23.4854	23.6369	0.740573	0.740573	0.740573	0.740573	65.7294	495.448	-0	-500
94	23.3997	23.4171	23.4196	23.571	0.740461	0.740461	0.740461	0.740461	65.4772	494.632	-0	-500
95	23.335	23.3525	23.3549	23.5062	0.740351	0.740351	0.740351	0.740351	65.2293	493.83	-0	-500
96	23.2715	23.2889	23.2913	23.4425	0.740243	0.740243	0.740243	0.740243	64.9856	493.042	-0	-500
97	23.2091	23.2265	23.2288	23.38	0.740137	0.740137	0.740137	0.740137	64.7462	492.268	-0	-500
98	23.1478	23.1652	23.1674	23.3185	0.740033	0.740033	0.740033	0.740033	64.5108	491.507	-0	-500
99	23.0875	23.1049	23.1071	23.2581	0.739931	0.739931	0.739931	0.739931	64.2794	490.76	-0	-500
100	23.0283	23.0457	23.0479	23.1988	0.739831	0.739831	0.739831	0.739831	64.052	490.026	-0	-500
101	22.9701	22.9875	22.9897	23.1405	0.739732	0.739732	0.739732	0.739732	63.8285	489.305	-0	-500
102	22.913	22.9303	22.9325	23.0832	0.739636	0.739636	0.739636	0.739636	63.6089	488.597	-0	-500
103	22.8568	22.8742	22.8763	23.0269	0.739541	0.739541	0.739541	0.739541	63.393	487.901	-0	-500
104	22.8017	22.819	22.8211	22.9717	0.739448	0.739448	0.739448	0.739448	63.1808	487.217	-0	-500
105	22.7475	22.7648	22.7668	22.9173	0.739357	0.739357	0.739357	0.739357	62.9722	486.545	-0	-500
106	22.6942	22.7115	22.7135	22.8639	0.739267	0.739267	0.739267	0.739267	62.7672	485.885	-0	-500
107	22.6419	22.6592	22.6611	22.8115	0.739179	0.739179	0.739179	0.739179	62.5658	485.237	-0	-500
108	22.5905	22.6077	22.6097	22.76	0.739093	0.739093	0.739093	0.739093	62.3678	484.6	-0	-500
109	22.5399	22.5572	22.5591	22.7093	0.739008	0.739008	0.739008	0.739008	62.1732	483.974	-0	-500
110	22.4903	22.5076	22.5094	22.6596	0.738925	0.738925	0.738925	0.738925	61.982	483.359	-0	-500
111	22.4415	22.4588	22.4606	22.6107	0.738843	0.738843	0.738843	0.738843	61.794	482.755	-0	-500
112	22.3936	22.4109	22.4127	22.5627	0.738763	0.738763	0.738763	0.738763	61.6093	482.162	-0	-500
113	22.3465	22.3638	22.3655	22.5155	0.738684	0.738684	0.738684	0.738684	61.4277	481.579	-0	-500
114	22.3003	22.3175	22.3192	22.4691	0.738607	0.738607	0.738607	0.738607	61.2493	481.006	-0	-500
115	22.2548	22.2721	22.2738	22.4236	0.738531	0.738531	0.738531	0.738531	61.0739	480.443	-0	-500
116	22.2102	22.2274	22.2291	22.3788	0.738456	0.738456	0.738456	0.738456	60.9016	479.89	-0	-500
117	22.1663	22.1835	22.1851	22.3349	0.738383	0.738383	0.738383	0.738383	60.7323	479.347	-0	-500
118	22.1232	22.1404	22.142	22.2916	0.738311	0.738311	0.738311	0.738311	60.5658	478.813	-0	-500
119	22.0808	22.098	22.0996	22.2492	0.738241	0.738241	0.738241	0.738241	60.4022	478.289	-0	-500
120	22.0392	22.0564	22.058	22.2075	0.738172	0.738172	0.738172	0.738172	60.2415	477.774	-0	-500
121	21.9983	22.0155	22.017	22.1665	0.738104	0.738104	0.738104	0.738104	60.0835	477.268	-0	-500
122	21.9582	21.9753	21.9768	22.1262	0.738037	0.738037	0.738037	0.738037	59.9282	476.771	-0	-500
123	21.9187	21.9358	21.9373	22.0867	0.737971	0.737971	0.737971	0.737971	59.7756	476.282	-0	-500
124	21.8799	21.8971	21.8985	22.0478	0.737907	0.737907	0.737907	0.737907	59.6257	475.802	-0	-500
125	21.8418	21.8589	21.8604	22.0096	0.737844	0.737844	0.737844	0.737844	59.4783	475.331	-0	-500
126	21.8044	21.8215	21.8229	21.9721	0.737782	0.737782	0.737782	0.737782	59.3335	474.868	-0	-500
127	21.7676	21.7847	21.7861	21.9352	0.737721	0.737721	0.737721	0.737721	59.1912	474.413	-0	-500
128	21.7314	21.7486	21.7499	21.899	0.737661	0.737661	0.737661	0.737661	59.0513	473.966	-0	-500
129	21.6959	21.713	21.7144	21.8634	0.737602	0.737602	0.737602	0.737602	58.9139	473.526	-0	-500
130	21.661	21.6781	21.6794	21.8284	0.737545	0.737545	0.737545	0.737545	58.7788	473.095	-0	-500
131	21.6268	21.6438	21.6451	21.7941	0.737488	0.737488	0.737488	0.737488	58.6461	472.671	-0	-500
132	21.5931	21.6102	21.6114	21.7603	0.737433	0.737433	0.737433	0.737433	58.5156	472.254	-0	-500
133	21.56	21.5771	21.5783	21.7271	0.737378	0.737378	0.737378	0.737378	58.3875	471.845	-0	-500
134	21.5275	21.5445	21.5457	21.6946	0.737324	0.737324	0.737324	0.737324	58.2615	471.443	-0	-500
135	21.4955	21.5126	21.5138	21.6625	0.737272	0.737272	0.737272	0.737272	58.1377	471.048	-0	-500
136	21.4641	21.4812	21.4823	21.6311	0.73722	0.73722	0.73722	0.73722	58.016	470.66	-0	-500
137	21.4333	21.4503	21.4515	21.6002	0.737169	0.737169	0.737169	0.737169	57.8965	470.278	-0	-500
138	21.403	21.42	21.4211	21.5698	0.737119	0.737119	0.737119	0.737119	57.779	469.904	-0	-500
139	21.3732	21.3902	21.3913	21.5399	0.73707	0.73707	0.73707	0.73707	57.6636	469.536	-0	-500
140	21.3439	21.361	21.3621	21.5106	0.737022	0.737022	0.737022	0.737022	57.5501	469.174	-0	-500
141	21.3152	21.3322	21.3333	21.4818	0.736975	0.736975	0.736975	0.736975	57.4386	468.819	-0	-500
142	21.287	21.304	21.305	21.4535	0.736929	0.736929	0.736929	0.736929	57.3291	468.47	-0	-500
143	21.2592	21.2762	21.2773	21.4257	0.736883	0.736883	0.736883	0.736883	57.2214	468.127	-0	-500
144	21.232	21.249	21.25	21.3984	0.736838	0.736838	0.736838	0.736838	57.1156	467.79	-0	-500
145	21.2052	21.2222	21.2232	21.3715	0.736794	0.736794	0.736794	0.736794	57.0117	467.459	-0	-500
146	21.1788	21.1958	21.1968	21.3451	0.736751	0.736751	0.736751	0.736751	56.9095	467.133	-0	-500
147	21.153	21.17	21.1709	21.3192	0.736709	0.736709	0.736709	0.736709	56.8091	466.814	-0	-500
148	21.1276	21.1446	21.1455	21.2938	0.736667	0.736667	0.736667	0.736667	56.7105	466.5	-0	-500
149	21.1026	21.1196	21.1205	21.2687	0.736626	0.736626	0.736626	0.736626	56.6135	466.191	-0	-500
150	21.0781	21.0951	21.096	21.2442	0.736586	0.736586	0.736586	0.736586	56.5183	465.888	-0	-500
151	21.054	21.071	21.0719	21.22	0.736547	0.736547	0.736547	0.736547	56.4247	465.59	-0	-500
152	21.0303	21.0473	21.0482	21.1963	0.736508	0.736508	0.736508	0.736508	56.3327	465.298	-0	-500
153	21.007	21.024	21.0249	21.1729	0.73647	0.73647	0.73647	0.73647	56.2423	465.01	-0	-500
154	20.9842	21.0011	21.002	21.15	0.736433	0.736433	0.736433	0.736433	56.1535	464.728	-0	-500
155	20.9617	20.9787	20.9795	21.1275	0.736396	0.736396	0.736396	0.736396	56.0662	464.451	-0	-500
156	20.9397	20.9566	20.9574	21.1054	0.73636	0.73636	0.73636	0.73636	55.9804	464.178	-0	-500
157	20.918	20.9349	20.9357	21.0837	0.736325	0.736325	0.736325	0.736325	55.8961	463.91	-0	-500
158	20.8967	20.9136	20.9144	21.0623	0.73629	0.73629	0.73629	0.73629	55.8133	463.647	-0	-500
159	20.8757	20.8927	20.8935	21.0413	0.736256	0.736256	0.736256	0.736256	55.732	463.388	-0	-500
160	20.8552	20.8721	20.8729	21.0207	0.736222	0.736222	0.736222	0.736222	55.652	463.134	-0	-500
161	20.835	20.8519	20.8526	21.0005	0.736189	0.736189	0.736189	0.736189	55.5734	462.885	-0	-500
162	20.8151	20.832	20.8328	20.9806	0.736157	0.736157	0.736157	0.736157	55.4962	462.64	-0	-500
163	20.7956	20.8125	20.8133	20.961	0.736125	0.736125	0.736125	0.736125	55.4203	462.399	-0	-500
164	20.7765	20.7934	20.7941	20.9418	0.736094	0.736094	0.736094	0.736094	55.3458	462.162	-0	-500
165	20.7576	20.7745	20.7752	20.9229	0.736063	0.736063	0.736063	0.736063	55.2725	461.929	-0	-500
166	20.7391	20.756	20.7567	20.9044	0.736033	0.736033	0.736033	0.736033	55.2005	461.701	-0	-500
167	20.7209	20.7378	20.7385	20.8862	0.736004	0.736004	0.736004	0.736004	55.1298	461.477	-0	-500
168	20.7031	20.72	20.7206	20.8683	0.735975	0.735975	0.735975	0.735975	55.0603	461.256	-0	-500
169	20.6855	20.7024	20.7031	20.8507	0.735946	0.735946	0.735946	0.735946	54.992	461.039	-0	-500
170	20.6683	20.6852	20.6858	20.8334	0.735918	0.735918	0.735918	0.735918	54.9248	460.826	-0	-500
171	20.6513	20.6682	20.6689	20.8164	0.735891	0.735891	0.735891	0.735891	54.8589	460.617	-0	-500
172	20.6347	20.6516	20.6522	20.7997	0.735864	0.735864	0.735864	0.735864	54.7941	460.412	-0	-500
173	20.6183	20.6352	20.6358	20.7834	0.735837	0.735837	0.735837	0.735837	54.7304	460.21	-0	-500
174	20.6023	20.6191	20.6197	20.7673	0.735811	0.735811	0.735811	0.735811	54.6678	460.011	-0	-500
175	20.5865	20.6034	20.6039	20.7514	0.735785	0.735785	0.735785	0.735785	54.6064	459.816	-0	-500
176	20.571	20.5878	20.5884	20.7359	0.73576	0.73576	0.73576	0.73576	54.546	459.625	-0	-500
177	20.5557	20.5726	20.5732	20.7206	0.735735	0.735735	0.735735	0.735735	54.4866	459.437	-0	-500
178	20.5408	20.5576	20.5582	20.7056	0.735711	0.735711	0.735711	0.735711	54.4283	459.252	-0	-500
179	20.526	20.5429	20.5434	20.6908	0.735687	0.735687	0.735687	0.735687	54.3709	459.07	-0	-500
180	20.5116	20.5284	20.529	20.6764	0.735664	0.735664	0.735664	0.735664	54.3146	458.892	-0	-500
181	20.4974	20.5142	20.5148	20.6621	0.735641	0.735641	0.735641	0.735641	54.2593	458.716	-0	-500
182	20.4834	20.5003	20.5008	20.6481	0.735618	0.735618	0.735618	0.735618	54.2049	458.544	-0	-500
183	20.4697	20.4866	20.4871	20.6344	0.735596	0.735596	0.735596	0.735596	54.1515	458.375	-0	-500
184	20.4562	20.4731	20.4736	20.6209	0.735574	0.735574	0.735574	0.735574	54.099	458.209	-0	-500
185	20.443	20.4598	20.4603	20.6076	0.735553	0.735553	0.735553	0.735553	54.0474	458.045	-0	-500
186	20.43	20.4468	20.4473	20.5946	0.735532	0.735532	0.735532	0.735532	53.9967	457.885	-0	-500
187	20.4172	20.434	20.4345	20.5818	0.735511	0.735511	0.735511	0.735511	53.9469	457.727	-0	-500
188	20.4047	20.4215	20.422	20.5692	0.735491	0.735491	0.735491	0.735491	53.8979	457.572	-0	-500
189	20.3923	20.4091	20.4096	20.5568	0.735471	0.735471	0.735471	0.735471	53.8498	457.42	-0	-500
190	20.3802	20.397	20.3975	20.5447	0.735451	0.735451	0.735451	0.735451	53.8026	457.27	-0	-500
191	20.3683	20.3851	20.3856	20.5327	0.735432	0.735432	0.735432	0.735432	53.7562	457.123	-0	-500
192	20.3566	20.3734	20.3738	20.521	0.735413	0.735413	0.735413	0.735413	53.7105	456.979	-0	-500
193	20.3451	20.3619	20.3623	20.5095	0.735394	0.735394	0.735394	0.735394	53.6657	456.837	-0	-500
194	20.3338	20.3506	20.351	20.4982	0.735376	0.735376	0.735376	0.735376	53.6217	456.698	-0	-500
195	20.3227	20.3395	20.3399	20.487	0.735358	0.735358	0.735358	0.735358	53.5784	456.561	-0	-500
196	20.3118	20.3286	20.329	20.4761	0.735341	0.735341	0.735341	0.735341	53.5358	456.426	-0	-500
197	20.3011	20.3179	20.3183	20.4654	0.735323	0.735323	0.735323	0.735323	53.4941	456.294	-0	-500
198	20.2906	20.3074	20.3078	20.4548	0.735306	0.735306	0.735306	0.735306	53.453	456.164	-0	-500
199	20.2802	20.297	20.2974	20.4444	0.73529	0.73529	0.73529	0.73529	53.4126	456.036	-0	-500
200	20.2701	20.2868	20.2872	20.4343	0.735273	0.735273	0.735273	0.735273	53.373	455.911	-0	-500
201	20.2601	20.2769	20.2772	20.4243	0.735257	0.735257	0.735257	0.735257	53.3341	455.788	-0	-500
202	20.2503	20.267	20.2674	20.4144	0.735241	0.735241	0.735241	0.735241	53.2958	455.667	-0	-500
203	20.2406	20.2574	20.2578	20.4048	0.735226	0.735226	0.735226	0.735226	53.2582	455.548	-0	-500
204	20.2311	20.2479	20.2483	20.3953	0.73521	0.73521	0.73521	0.73521	53.2212	455.431	-0	-500
205	20.2218	20.2386	20.239	20.3859	0.735195	0.735195	0.735195	0.735195	53.1849	455.316	-0	-500
206	20.2127	20.2295	20.2298	20.3768	0.735181	0.735181	0.735181	0.735181	53.1492	455.203	-0	-500
207	20.2037	20.2205	20.2208	20.3678	0.735166	0.735166	0.735166	0.735166	53.1142	455.092	-0	-500
208	20.1949	20.2117	20.212	20.3589	0.735152	0.735152	0.735152	0.735152	53.0797	454.983	-0	-500
209	20.1862	20.203	20.2033	20.3502	0.735138	0.735138	0.735138	0.735138	53.0459	454.876	-0	-500
210	20.1777	20.1945	20.1948	20.3417	0.735124	0.735124	0.735124	0.735124	53.0126	454.771	-0	-500
211	20.1693	20.1861	20.1864	20.3333	0.735111	0.735111	0.735111	0.735111	52.98	454.668	-0	-500
212	20.1611	20.1779	20.1782	20.3251	0.735097	0.735097	0.735097	0.735097	52.9478	454.567	-0	-500
213	20.153	20.1698	20.1701	20.317	0.735084	0.735084	0.735084	0.735084	52.9163	454.467	-0	-500
214	20.1451	20.1618	20.1621	20.309	0.735072	0.735072	0.735072	0.735072	52.8853	454.369	-0	-500
215	20.1373	20.154	20.1543	20.3012	0.735059	0.735059	0.735059	0.735059	52.8548	454.273	-0	-500
216	20.1296	20.1464	20.1467	20.2935	0.735047	0.735047	0.735047	0.735047	52.8249	454.178	-0	-500
217	20.1221	20.1388	20.1391	20.2859	0.735035	0.735035	0.735035	0.735035	52.7955	454.085	-0	-500
218	20.1147	20.1314	20.1317	20.2785	0.735023	0.735023	0.735023	0.735023	52.7666	453.994	-0	-500
219	20.1074	20.1242	20.1244	20.2712	0.735011	0.735011	0.735011	0.735011	52.7382	453.904	-0	-500
220	20.1003	20.117	20.1173	20.2641	0.735	0.735	0.735	0.735	52.7103	453.816	-0	-500
221	20.0932	20.11	20.1103	20.257	0.734988	0.734988	0.734988	0.734988	52.6829	453.729	-0	-500
222	20.0863	20.1031	20.1034	20.2501	0.734977	0.734977	0.734977	0.734977	52.656	453.644	-0	-500
223	20.0796	20.0963	20.0966	20.2433	0.734966	0.734966	0.734966	0.734966	52.6295	453.561	-0	-500
224	20.0729	20.0897	20.0899	20.2367	0.734956	0.734956	0.734956	0.734956	52.6035	453.479	-0	-500
225	20.0664	20.0831	20.0834	20.2301	0.734945	0.734945	0.734945	0.734945	52.578	453.398	-0	-500
226	20.0599	20.0767	20.0769	20.2237	0.734935	0.734935	0.734935	0.734935	52.5529	453.319	-0	-500
227	20.0536	20.0704	20.0706	20.2173	0.734923	0.734923	0.734923	0.734923	52.5282	453.24	-0	-500
228	20.0474	20.0642	20.0644	20.2111	0.734913	0.734913	0.734913	0.734913	52.5039	453.164	-0	-500
229	20.0413	20.0581	20.0583	20.205	0.734904	0.734904	0.734904	0.734904	52.4801	453.088	-0	-500
230	20.0353	20.0521	20.0523	20.199	0.734894	0.734894	0.734894	0.734894	52.4567	453.015	-0	-500
231	20.0294	20.0462	20.0464	20.1931	0.734885	0.734885	0.734885	0.734885	52.4337	452.942	-0	-500
232	20.0237	20.0404	20.0406	20.1873	0.734875	0.734875	0.734875	0.734875	52.4111	452.871	-0	-500
233	20.018	20.0347	20.0349	20.1816	0.734866	0.734866	0.734866	0.734866	52.389	452.801	-0	-500
234	20.0124	20.0291	20.0293	20.176	0.734857	0.734857	0.734857	0.734857	52.3672	452.732	-0	-500
235	20.0069	20.0236	20.0239	20.1705	0.734848	0.734848	0.734848	0.734848	52.3457	452.664	-0	-500
236	20.0015	20.0183	20.0185	20.1651	0.73484	0.73484	0.73484	0.73484	52.3247	452.598	-0	-500
237	19.9962	20.013	20.0132	20.1598	0.734829	0.734829	0.734829	0.734829	52.304	452.533	-0	-500
238	19.991	20.0078	20.008	20.1546	0.734817	0.734817	0.734817	0.734817	52.2837	452.469	-0	-500
239	19.9859	20.0026	20.0028	20.1495	0.734805	0.734805	0.734805	0.734805	52.2635	452.406	-0	-500
240	19.9809	19.9976	19.9978	20.1444	0.734793	0.734793	0.734793	0.734793	52.2442	452.343	-0	-500
241	19.976	19.9927	19.9929	20.1395	0.734781	0.734781	0.734781	0.734781	52.2259	452.282	-0	-500
242	19.9711	19.9878	19.988	20.1346	0.734769	0.734769	0.734769	0.734769	52.2078	452.221	-0	-500
243	19.9663	19.9831	19.9833	20.1299	0.734758	0.734758	0.734758	0.734758	52.19	452.162	-0	-500
244	19.9617	19.9784	19.9786	20.1252	0.734747	0.734747	0.734747	0.734747	52.1726	452.103	-0	-500
245	19.9571	19.9738	19.974	20.1206	0.734736	0.734736	0.734736	0.734736	52.1554	452.045	-0	-500
246	19.9526	19.9693	19.9694	20.116	0.734725	0.734725	0.734725	0.734725	52.1386	451.989	-0	-500
247	19.9481	19.9648	19.965	20.1116	0.734714	0.734714	0.734714	0.734714	52.122	451.933	-0	-500
248	19.9437	19.9605	19.9606	20.1072	0.734704	0.734704	0.734704	0.734704	52.1057	451.879	-0	-500
249	19.9395	19.9562	19.9563	20.1029	0.734694	0.734694	0.734694	0.734694	52.0898	451.825	-0	-500
250	19.9353	19.952	19.9521	20.0987	0.734682	0.734682	0.734682	0.734682	52.074	451.772	-0	-500
251	19.9311	19.9478	19.948	20.0946	0.734672	0.734672	0.734672	0.734672	52.0586	451.72	-0	-500
252	19.927	19.9438	19.9439	20.0905	0.734663	0.734663	0.734663	0.734663	52.0434	451.669	-0	-500
253	19.9231	19.9398	19.9399	20.0865	0.734653	0.734653	0.734653	0.734653	52.0285	451.619	-0	-500
254	19.9191	19.9358	19.936	20.0825	0.734644	0.734644	0.734644	0.734644	52.0139	451.57	-0	-500
255	19.9153	19.932	19.9321	20.0787	0.734635	0.734635	0.734635	0.734635	51.9995	451.522	-0	-500
256	19.9115	19.9282	19.9283	20.0749	0.734626	0.734626	0.734626	0.734626	51.9853	451.475	-0	-500
257	19.9078	19.9245	19.9246	20.0711	0.734617	0.734617	0.734617	0.734617	51.9715	451.428	-0	-500
258	19.9041	19.9208	19.921	20.0675	0.734608	0.734608	0.734608	0.734608	51.9578	451.382	-0	-500
259	19.9005	19.9172	19.9174	20.0639	0.734599	0.734599	0.734599	0.734599	51.9444	451.337	-0	-500
260	19.897	19.9137	19.9138	20.0603	0.734591	0.734591	0.734591	0.734591	51.9312	451.293	-0	-500
261	19.8935	19.9102	19.9104	20.0569	0.734583	0.734583	0.734583	0.734583	51.9183	451.25	-0	-500
262	19.8901	19.9068	19.9069	20.0535	0.734574	0.734574	0.734574	0.734574	51.9056	451.207	-0	-500
263	19.8868	19.9035	19.9036	20.0501	0.734566	0.734566	0.734566	0.734566	51.8931	451.165	-0	-500
264	19.8835	19.9002	19.9003	20.0468	0.734559	0.734559	0.734559	0.734559	51.8808	451.124	-0	-500
265	19.8802	19.8969	19.8971	20.0436	0.734551	0.734551	0.734551	0.734551	51.8688	451.084	-0	-500
266	19.8771	19.8938	19.8939	20.0404	0.734543	0.734543	0.734543	0.734543	51.8569	451.044	-0	-500
267	19.8739	19.8906	19.8908	20.0372	0.734536	0.734536	0.734536	0.734536	51.8453	451.005	-0	-500
268	19.8709	19.8876	19.8877	20.0342	0.734529	0.734529	0.734529	0.734529	51.8338	450.967	-0	-500
269	19.8679	19.8846	19.8847	20.0312	0.734521	0.734521	0.734521	0.734521	51.8226	450.929	-0	-500
270	19.8649	19.8816	19.8817	20.0282	0.734515	0.734515	0.734515	0.734515	51.8115	450.892	-0	-500
271	19.862	19.8787	19.8788	20.0253	0.734509	0.734509	0.734509	0.734509	51.8007	450.856	-0	-500
272	19.8591	19.8758	19.8759	20.0224	0.734502	0.734502	0.734502	0.734502	51.7901	450.82	-0	-500
273	19.8563	19.873	19.8731	20.0196	0.734495	0.734495	0.734495	0.734495	51.7796	450.785	-0	-500
274	19.8536	19.8703	19.8704	20.0168	0.734488	0.734488	0.734488	0.734488	51.7693	450.75	-0	-500
275	19.8509	19.8676	19.8677	20.0141	0.734482	0.734482	0.734482	0.734482	51.7591	450.717	-0	-500
276	19.8482	19.8649	19.865	20.0114	0.734475	0.734475	0.734475	0.734475	51.7492	450.683	-0	-500
277	19.8456	19.8623	19.8624	20.0088	0.734469	0.734469	0.734469	0.734469	51.7394	450.651	-0	-500
278	19.843	19.8597	19.8598	20.0062	0.734463	0.734463	0.734463	0.734463	51.7298	450.618	-0	-500
279	19.8405	19.8572	19.8573	20.0037	0.734457	0.734457	0.734457	0.734457	51.7204	450.587	-0	-500
280	19.838	19.8547	19.8548	20.0012	0.734451	0.734451	0.734451	0.734451	51.7112	450.556	-0	-500
281	19.8356	19.8523	19.8523	19.9988	0.734445	0.734445	0.734445	0.734445	51.702	450.525	-0	-500
282	19.8332	19.8499	19.8499	19.9964	0.73444	0.73444	0.73444	0.73444	51.6931	450.495	-0	-500
283	19.8308	19.8475	19.8476	19.994	0.734434	0.734434	0.734434	0.734434	51.6843	450.466	-0	-500
284	19.8285	19.8452	19.8453	19.9917	0.734428	0.734428	0.734428	0.734428	51.6757	450.437	-0	-500
285	19.8262	19.8429	19.843	19.9894	0.734423	0.734423	0.734423	0.734423	51.6672	450.409	-0	-500
286	19.824	19.8407	19.8408	19.9872	0.734418	0.734418	0.734418	0.734418	51.6589	450.381	-0	-500
287	19.8218	19.8385	19.8386	19.985	0.734412	0.734412	0.734412	0.734412	51.6507	450.353	-0	-500
288	19.8196	19.8363	19.8364	19.9828	0.734407	0.734407	0.734407	0.734407	51.6426	450.326	-0	-500
289	19.8175	19.8342	19.8343	19.9807	0.734402	0.734402	0.734402	0.734402	51.6347	450.3	-0	-500
290	19.8154	19.8321	19.8322	19.9786	0.734397	0.734397	0.734397	0.734397	51.6269	450.274	-0	-500
291	19.8134	19.8301	19.8302	19.9766	0.734392	0.734392	0.734392	0.734392	51.6193	450.248	-0	-500
292	19.8114	19.8281	19.8282	19.9746	0.734388	0.734388	0.734388	0.734388	51.6118	450.223	-0	-500
293	19.8094	19.8261	19.8262	19.9726	0.734383	0.734383	0.734383	0.734383	51.6044	450.198	-0	-500
294	19.8075	19.8242	19.8242	19.9706	0.734378	0.734378	0.734378	0.734378	51.5972	450.174	-0	-500
295	19.8056	19.8223	19.8223	19.9687	0.734374	0.734374	0.734374	0.734374	51.5901	450.15	-0	-500
296	19.8037	19.8204	19.8205	19.9669	0.734369	0.734369	0.734369	0.734369	51.5831	450.127	-0	-500
297	19.8019	19.8186	19.8186	19.965	0.734365	0.734365	0.734365	0.734365	51.5762	450.104	-0	-500
298	19.8	19.8167	19.8168	19.9632	0.73436	0.73436	0.73436	0.73436	51.5695	450.081	-0	-500
299	19.7983	19.815	19.815	19.9614	0.734356	0.734356	0.734356	0.734356	51.5628	450.059	-0	-500
300	19.7965	19.8132	19.8133	19.9597	0.734352	0.734352	0.734352	0.734352	51.5563	450.037	-0	-500
301	19.7948	19.8115	19.8116	19.958	0.734348	0.734348	0.734348	0.734348	51.5499	450.016	-0	-500
302	19.7931	19.8098	19.8099	19.9563	0.734344	0.734344	0.734344	0.734344	51.5436	449.995	-0	-500
303	19.7915	19.8082	19.8082	19.9546	0.73434	0.73434	0.73434	0.73434	51.5375	449.974	-0	-500
304	19.7898	19.8065	19.8066	19.953	0.734336	0.734336	0.734336	0.734336	51.5314	449.954	-0	-500
305	19.7882	19.8049	19.805	19.9514	0.734332	0.734332	0.734332	0.734332	51.5254	449.934	-0	-500
306	19.7867	19.8034	19.8034	19.9498	0.734328	0.734328	0.734328	0.734328	51.5196	449.914	-0	-500
307	19.7851	19.8018	19.8019	19.9483	0.734325	0.734325	0.734325	0.734325	51.5138	449.895	-0	-500
308	19.7836	19.8003	19.8004	19.9467	0.734321	0.734321	0.734321	0.734321	51.5081	449.876	-0	-500
309	19.7821	19.7988	19.7989	19.9453	0.734317	0.734317	0.734317	0.734317	51.5025	449.857	-0	-500
310	19.7807	19.7974	19.7974	19.9438	0.734314	0.734314	0.734314	0.734314	51.4971	449.838	-0	-500
311	19.7792	19.7959	19.796	19.9423	0.73431	0.73431	0.73431	0.73431	51.4917	449.82	-0	-500
312	19.7778	19.7945	19.7946	19.9409	0.734307	0.734307	0.734307	0.734307	51.4864	449.803	-0	-500
313	19.7764	19.7931	19.7932	19.9395	0.734303	0.734303	0.734303	0.734303	51.4812	449.785	-0	-500
314	19.7751	19.7918	19.7918	19.9382	0.7343	0.7343	0.7343	0.7343	51.4762	449.768	-0	-500
315	19.7737	19.7904	19.7905	19.9368	0.734297	0.734297	0.734297	0.734297	51.4712	449.752	-0	-500
316	19.7724	19.7891	19.7892	19.9355	0.734294	0.734294	0.734294	0.734294	51.4662	449.735	-0	-500
317	19.7711	19.7878	19.7879	19.9342	0.734291	0.734291	0.734291	0.734291	51.4614	449.719	-0	-500
318	19.7699	19.7865	19.7866	19.9329	0.734288	0.734288	0.734288	0.734288	51.4567	449.703	-0	-500
319	19.7686	19.7853	19.7853	19.9317	0.734285	0.734285	0.734285	0.734285	51.452	449.688	-0	-500
320	19.7674	19.7841	19.7841	19.9305	0.734282	0.734282	0.734282	0.734282	51.4474	449.672	-0	-500
321	19.7662	19.7829	19.7829	19.9293	0.734279	0.734279	0.734279	0.734279	51.4429	449.657	-0	-500
322	19.765	19.7817	19.7817	19.9281	0.734276	0.734276	0.734276	0.734276	51.4385	449.642	-0	-500
323	19.7638	19.7805	19.7806	19.9269	0.734273	0.734273	0.734273	0.734273	51.4342	449.628	-0	-500
324	19.7627	19.7794	19.7794	19.9258	0.734271	0.734271	0.734271	0.734271	51.4299	449.614	-0	-500
325	19.7616	19.7782	19.7783	19.9246	0.734268	0.734268	0.734268	0.734268	51.4257	449.6	-0	-500
326	19.7605	19.7771	19.7772	19.9235	0.734265	0.734265	0.734265	0.734265	51.4216	449.586	-0	-500
327	19.7594	19.7761	19.7761	19.9224	0.734263	0.734263	0.734263	0.734263	51.4175	449.572	-0	-500
328	19.7583	19.775	19.775	19.9214	0.73426	0.73426	0.73426	0.73426	51.4135	449.559	-0	-500
329	19.7573	19.7739	19.774	19.9203	0.734258	0.734258	0.734258	0.734258	51.4096	449.546	-0	-500
330	19.7562	19.7729	19.773	19.9193	0.734255	0.734255	0.734255	0.734255	51.4058	449.533	-0	-500
331	19.7552	19.7719	19.7719	19.9183	0.734253	0.734253	0.734253	0.734253	51.402	449.52	-0	-500
332	19.7542	19.7709	19.771	19.9173	0.734252	0.734252	0.734252	0.734252	51.3984	449.509	-0	-500
333	19.7533	19.7699	19.77	19.9163	0.734249	0.734249	0.734249	0.734249	51.3947	449.496	-0	-500
334	19.7523	19.769	19.769	19.9153	0.734247	0.734247	0.734247	0.734247	51.3912	449.484	-0	-500
335	19.7514	19.768	19.7681	19.9144	0.734244	0.734244	0.734244	0.734244	51.3876	449.472	-0	-500
336	19.7504	19.7671	19.7672	19.9135	0.734243	0.734243	0.734243	0.734243	51.3842	449.461	-0	-500
337	19.7495	19.7662	19.7662	19.9126	0.73424	0.73424	0.73424	0.73424	51.3807	449.449	-0	-500
338	19.7486	19.7653	19.7653	19.9117	0.734238	0.734238	0.734238	0.734238	51.3775	449.438	-0	-500
339	19.7477	19.7644	19.7645	19.9108	0.734236	0.734236	0.734236	0.734236	51.3741	449.427	-0	-500
340	19.7469	19.7636	19.7636	19.9099	0.734234	0.734234	0.734234	0.734234	51.371	449.417	-0	-500
341	19.746	19.7627	19.7628	19.9091	0.734231	0.734231	0.734231	0.734231	51.3677	449.406	-0	-500
342	19.7452	19.7619	19.7619	19.9082	0.73423	0.73423	0.73423	0.73423	51.3647	449.396	-0	-500
343	19.7444	19.7611	19.7611	19.9074	0.734228	0.734228	0.734228	0.734228	51.3616	449.385	-0	-500
344	19.7436	19.7603	19.7603	19.9066	0.734226	0.734226	0.734226	0.734226	51.3586	449.375	-0	-500
345	19.7428	19.7595	19.7595	19.9058	0.734224	0.734224	0.734224	0.734224	51.3556	449.365	-0	-500
346	19.742	19.7587	19.7587	19.9051	0.734223	0.734223	0.734223	0.734223	51.3528	449.356	-0	-500
347	19.7413	19.7579	19.758	19.9043	0.73422	0.73422	0.73422	0.73422	51.3499	449.346	-0	-500
348	19.7405	19.7572	19.7572	19.9035	0.734219	0.734219	0.734219	0.734219	51.3471	449.337	-0	-500
349	19.7398	19.7565	19.7565	19.9028	0.734217	0.734217	0.734217	0.734217	51.3444	449.328	-0	-500
350	19.7391	19.7557	19.7558	19.9021	0.734215	0.734215	0.734215	0.734215	51.3416	449.318	-0	-500
351	19.7383	19.755	19.7551	19.9014	0.734213	0.734213	0.734213	0.734213	51.339	449.309	-0	-500
352	19.7376	19.7543	19.7544	19.9007	0.734212	0.734212	0.734212	0.734212	51.3364	449.301	-0	-500
353	19.737	19.7536	19.7537	19.9	0.73421	0.73421	0.73421	0.73421	51.3339	449.293	-0	-500
354	19.7363	19.753	19.753	19.8993	0.734209	0.734209	0.734209	0.734209	51.3313	449.284	-0	-500
355	19.7356	19.7523	19.7523	19.8986	0.734206	0.734206	0.734206	0.734206	51.3288	449.275	-0	-500
356	19.735	19.7517	19.7517	19.898	0.734205	0.734205	0.734205	0.734205	51.3264	449.267	-0	-500
357	19.7343	19.751	19.751	19.8973	0.734204	0.734204	0.734204	0.734204	51.324	449.26	-0	-500
358	19.7337	19.7504	19.7504	19.8967	0.734203	0.734203	0.734203	0.734203	51.3217	449.252	-0	-500
359	19.7331	19.7498	19.7498	19.8961	0.734201	0.734201	0.734201	0.734201	51.3194	449.244	-0	-500
360	19.7325	19.7492	19.7492	19.8955	0.734199	0.734199	0.734199	0.734199	51.3171	449.236	-0	-500
361	19.7319	19.7486	19.7486	19.8949	0.734197	0.734197	0.734197	0.734197	51.3148	449.228	-0	-500
362	19.7313	19.748	19.748	19.8943	0.734196	0.734196	0.734196	0.734196	51.3126	449.221	-0	-500
363	19.7307	19.7474	19.7474	19.8937	0.734195	0.734195	0.734195	0.734195	51.3105	449.214	-0	-500
364	19.7302	19.7468	19.7469	19.8932	0.734193	0.734193	0.734193	0.734193	51.3084	449.207	-0	-500
365	19.7296	19.7463	19.7463	19.8926	0.734192	0.734192	0.734192	0.734192	51.3063	449.2	-0	-500
366	19.7291	19.7457	19.7458	19.8921	0.734191	0.734191	0.734191	0.734191	51.3043	449.193	-0	-500
367	19.7285	19.7452	19.7452	19.8915	0.73419	0.73419	0.73419	0.73419	51.3023	449.186	-0	-500
368	19.728	19.7447	19.7447	19.891	0.734188	0.734188	0.734188	0.734188	51.3003	449.18	-0	-500
369	19.7275	19.7442	19.7442	19.8905	0.734187	0.734187	0.734187	0.734187	51.2984	449.173	-0	-500
370	19.727	19.7437	19.7437	19.89	0.734186	0.734186	0.734186	0.734186	51.2965	449.167	-0	-500
371	19.7265	19.7432	19.7432	19.8895	0.734185	0.734185	0.734185	0.734185	51.2946	449.161	-0	-500
372	19.726	19.7427	19.7427	19.889	0.734185	0.734185	0.734185	0.734185	51.2929	449.155	-0	-500
373	19.7255	19.7422	19.7422	19.8885	0.734183	0.734183	0.734183	0.734183	51.2911	449.149	-0	-500
374	19.725	19.7417	19.7417	19.888	0.734182	0.734182	0.734182	0.734182	51.2893	449.143	-0	-500
375	19.7246	19.7413	19.7413	19.8876	0.734181	0.734181	0.734181	0.734181	51.2875	449.138	-0	-500
376	19.7241	19.7408	19.7408	19.8871	0.734179	0.734179	0.734179	0.734179	51.2858	449.132	-0	-500
377	19.7237	19.7403	19.7404	19.8867	0.734178	0.734178	0.734178	0.734178	51.2841	449.126	-0	-500
378	19.7232	19.7399	19.7399	19.8862	0.734177	0.734177	0.734177	0.734177	51.2824	449.12	-0	-500
379	19.7228	19.7395	19.7395	19.8858	0.734177	0.734177	0.734177	0.734177	51.2809	449.115	-0	-500
380	19.7224	19.739	19.7391	19.8853	0.734176	0.734176	0.734176	0.734176	51.2793	449.11	-0	-500
381	19.7219	19.7386	19.7386	19.8849	0.734174	0.734174	0.734174	0.734174	51.2777	449.105	-0	-500
382	19.7215	19.7382	19.7382	19.8845	0.734173	0.734173	0.734173	0.734173	51.2761	449.099	-0	-500
383	19.7211	19.7378	19.7378	19.8841	0.734173	0.734173	0.734173	0.734173	51.2747	449.094	-0	-500
384	19.7207	19.7374	19.7374	19.8837	0.734172	0.734172	0.734172	0.734172	51.2732	449.09	-0	-500
385	19.7203	19.737	19.737	19.8833	0.73417	0.73417	0.73417	0.73417	51.2717	449.085	-0	-500
386	19.72	19.7366	19.7367	19.8829	0.734169	0.734169	0.734169	0.734169	51.2703	449.079	-0	-500
387	19.7196	19.7363	19.7363	19.8826	0.734169	0.734169	0.734169	0.734169	51.2689	449.075	-0	-500
388	19.7192	19.7359	19.7359	19.8822	0.734168	0.734168	0.734168	0.734168	51.2675	449.071	-0	-500
389	19.7188	19.7355	19.7355	19.8818	0.734167	0.734167	0.734167	0.734167	51.2661	449.066	-0	-500
390	19.7185	19.7352	19.7352	19.8815	0.734167	0.734167	0.734167	0.734167	51.2648	449.061	-0	-500
391	19.7181	19.7348	19.7348	19.8811	0.734165	0.734165	0.734165	0.734165	51.2635	449.057	-0	-500
392	19.7178	19.7345	19.7345	19.8808	0.734164	0.734164	0.734164	0.734164	51.2622	449.053	-0	-500
393	19.7175	19.7341	19.7341	19.8804	0.734164	0.734164	0.734164	0.734164	51.261	449.049	-0	-500
394	19.7171	19.7338	19.7338	19.8801	0.734163	0.734163	0.734163	0.734163	51.2597	449.044	-0	-500
395	19.7168	19.7335	19.7335	19.8798	0.734162	0.734162	0.734162	0.734162	51.2584	449.04	-0	-500
396	19.7165	19.7332	19.7332	19.8794	0.734162	0.734162	0.734162	0.734162	51.2573	449.036	-0	-500
397	19.7162	19.7328	19.7329	19.8791	0.73416	0.73416	0.73416	0.73416	51.2561	449.032	-0	-500
398	19.7158	19.7325	19.7325	19.8788	0.73416	0.73416	0.73416	0.73416	51.255	449.028	-0	-500
399	19.7155	19.7322	19.7322	19.8785	0.734159	0.734159	0.734159	0.734159	51.2538	449.025	-0	-500
400	19.7152	19.7319	19.7319	19.8782	0.734158	0.734158	0.734158	0.734158	51.2526	449.021	-0	-500
401	19.7149	19.7316	19.7316	19.8779	0.734158	0.734158	0.734158	0.734158	51.2516	449.017	-0	-500
402	19.7147	19.7313	19.7314	19.8776	0.734157	0.734157	0.734157	0.734157	51.2505	449.013	-0	-500
403	19.7144	19.7311	19.7311	19.8773	0.734157	0.734157	0.734157	0.734157	51.2495	449.01	-0	-500
404	19.7141	19.7308	19.7308	19.8771	0.734156	0.734156	0.734156	0.734156	51.2484	449.007	-0	-500
405	19.7138	19.7305	19.7305	19.8768	0.734156	0.734156	0.734156	0.734156	51.2474	449.003	-0	-500
406	19.7135	19.7302	19.7302	19.8765	0.734154	0.734154	0.734154	0.734154	51.2464	449	-0	-500
407	19.7133	19.73	19.73	19.8763	0.734154	0.734154	0.734154	0.734154	51.2454	448.996	-0	-500
408	19.713	19.7297	19.7297	19.876	0.734153	0.734153	0.734153	0.734153	51.2444	448.993	-0	-500
409	19.7128	19.7295	19.7295	19.8757	0.734153	0.734153	0.734153	0.734153	51.2435	448.99	-0	-500
410	19.7125	19.7292	19.7292	19.8755	0.734152	0.734152	0.734152	0.734152	51.2425	448.987	-0	-500
411	19.7123	19.729	19.729	19.8752	0.734152	0.734152	0.734152	0.734152	51.2416	448.984	-0	-500
412	19.712	19.7287	19.7287	19.875	0.734151	0.734151	0.734151	0.734151	51.2407	448.981	-0	-500
413	19.7118	19.7285	19.7285	19.8748	0.734151	0.734151	0.734151	0.734151	51.2398	448.978	-0	-500
414	19.7116	19.7282	19.7282	19.8745	0.734149	0.734149	0.734149	0.734149	51.2389	448.975	-0	-500
415	19.7113	19.728	19.728	19.8743	0.734149	0.734149	0.734149	0.734149	51.2381	448.972	-0	-500
416	19.7111	19.7278	19.7278	19.8741	0.734148	0.734148	0.734148	0.734148	51.2371	448.968	-0	-500
417	19.7109	19.7276	19.7276	19.8738	0.734148	0.734148	0.734148	0.734148	51.2364	448.966	-0	-500
418	19.7107	19.7273	19.7274	19.8736	0.734148	0.734148	0.734148	0.734148	51.2356	448.964	-0	-500
419	19.7104	19.7271	19.7271	19.8734	0.734147	0.734147	0.734147	0.734147	51.2348	448.961	-0	-500
420	19.7102	19.7269	19.7269	19.8732	0.734147	0.734147	0.734147	0.734147	51.234	448.958	-0	-500
421	19.71	19.7267	19.7267	19.873	0.734146	0.734146	0.734146	0.734146	51.2332	448.955	-0	-500
422	19.7098	19.7265	19.7265	19.8728	0.734146	0.734146	0.734146	0.734146	51.2325	448.953	-0	-500
423	19.7096	19.7263	19.7263	19.8726	0.734146	0.734146	0.734146	0.734146	51.2317	448.951	-0	-500
424	19.7094	19.7261	19.7261	19.8724	0.734144	0.734144	0.734144	0.734144	51.231	448.948	-0	-500
425	19.7092	19.7259	19.7259	19.8722	0.734144	0.734144	0.734144	0.734144	51.2303	448.946	-0	-500
426	19.709	19.7257	19.7257	19.872	0.734143	0.734143	0.734143	0.734143	51.2295	448.943	-0	-500
427	19.7089	19.7255	19.7256	19.8718	0.734143	0.734143	0.734143	0.734143	51.2289	448.941	-0	-500
428	19.7087	19.7254	19.7254	19.8716	0.734143	0.734143	0.734143	0.734143	51.2282	448.939	-0	-500
429	19.7085	19.7252	19.7252	19.8715	0.734142	0.734142	0.734142	0.734142	51.2274	448.936	-0	-500
430	19.7083	19.725	19.725	19.8713	0.734142	0.734142	0.734142	0.734142	51.2269	448.934	-0	-500
431	19.7082	19.7248	19.7248	19.8711	0.734142	0.734142	0.734142	0.734142	51.2262	448.932	-0	-500
432	19.708	19.7247	19.7247	19.8709	0.734141	0.734141	0.734141	0.734141	51.2255	448.93	-0	-500
433	19.7078	19.7245	19.7245	19.8708	0.734141	0.734141	0.734141	0.734141	51.225	448.928	-0	-500
434	19.7076	19.7243	19.7243	19.8706	0.734141	0.734141	0.734141	0.734141	51.2243	448.926	-0	-500
435	19.7075	19.7242	19.7242	19.8704	0.734139	0.734139	0.734139	0.734139	51.2236	448.923	-0	-500
436	19.7073	19.724	19.724	19.8703	0.734139	0.734139	0.734139	0.734139	51.2232	448.922	-0	-500
437	19.7072	19.7239	19.7239	19.8701	0.734139	0.734139	0.734139	0.734139	51.2225	448.92	-0	-500
438	19.707	19.7237	19.7237	19.87	0.734139	0.734139	0.734139	0.734139	51.2219	448.918	-0	-500
439	19.7069	19.7236	19.7236	19.8698	0.734138	0.734138	0.734138	0.734138	51.2214	448.916	-0	-500
440	19.7067	19.7234	19.7234	19.8697	0.734138	0.734138	0.734138	0.734138	51.2209	448.914	-0	-500
441	19.7066	19.7233	19.7233	19.8695	0.734138	0.734138	0.734138	0.734138	51.2203	448.912	-0	-500
442	19.7064	19.7231	19.7231	19.8694	0.734137	0.734137	0.734137	0.734137	51.2197	448.91	-0	-500
443	19.7063	19.723	19.723	19.8692	0.734137	0.734137	0.734137	0.734137	51.2193	448.909	-0	-500
444	19.7062	19.7228	19.7228	19.8691	0.734137	0.734137	0.734137	0.734137	51.2187	448.907	-0	-500
445	19.706	19.7227	19.7227	19.869	0.734137	0.734137	0.734137	0.734137	51.2182	448.905	-0	-500
446	19.7059	19.7226	19.7226	19.8688	0.734136	0.734136	0.734136	0.734136	51.2178	448.904	-0	-500
447	19.7058	19.7224	19.7224	19.8687	0.734136	0.734136	0.734136	0.734136	51.2173	448.902	-0	-500
448	19.7056	19.7223	19.7223	19.8686	0.734136	0.734136	0.734136	0.734136	51.2167	448.901	-0	-500
449	19.7055	19.7222	19.7222	19.8685	0.734136	0.734136	0.734136	0.734136	51.2163	448.899	-0	-500
450	19.7054	19.7221	19.7221	19.8683	0.734135	0.734135	0.734135	0.734135	51.2159	448.898	-0	-500
451	19.7053	19.7219	19.7219	19.8682	0.734135	0.734135	0.734135	0.734135	51.2154	448.896	-0	-500
452	19.7051	19.7218	19.7218	19.8681	0.734135	0.734135	0.734135	0.734135	51.2149	448.894	-0	-500
453	19.705	19.7217	19.7217	19.868	0.734135	0.734135	0.734135	0.734135	51.2145	448.893	-0	-500
454	19.7049	19.7216	19.7216	19.8679	0.734133	0.734133	0.734133	0.734133	51.2141	448.892	-0	-500
455	19.7048	19.7215	19.7215	19.8677	0.734133	0.734133	0.734133	0.734133	51.2137	448.89	-0	-500
456	19.7047	19.7214	19.7214	19.8676	0.734133	0.734133	0.734133	0.734133	51.2132	448.889	-0	-500
457	19.7046	19.7212	19.7213	19.8675	0.734133	0.734133	0.734133	0.734133	51.2128	448.887	-0	-500
458	19.7045	19.7211	19.7211	19.8674	0.734133	0.734133	0.734133	0.734133	51.2124	448.886	-0	-500
459	19.7044	19.721	19.721	19.8673	0.734132	0.734132	0.734132	0.734132	51.212	448.885	-0	-500
460	19.7042	19.7209	19.7209	19.8672	0.734132	0.734132	0.734132	0.734132	51.2116	448.883	-0	-500
461	19.7041	19.7208	19.7208	19.8671	0.734132	0.734132	0.734132	0.734132	51.2112	448.882	-0	-500
462	19.704	19.7207	19.7207	19.867	0.734132	0.734132	0.734132	0.734132	51.2109	448.881	-0	-500
463	19.7039	19.7206	19.7206	19.8669	0.734132	0.734132	0.734132	0.734132	51.2105	448.88	-0	-500
464	19.7038	19.7205	19.7205	19.8668	0.734131	0.734131	0.734131	0.734131	51.2101	448.879	-0	-500
465	19.7038	19.7204	19.7204	19.8667	0.734131	0.734131	0.734131	0.734131	51.2097	448.877	-0	-500
466	19.7037	19.7203	19.7203	19.8666	0.734131	0.734131	0.734131	0.734131	51.2094	448.876	-0	-500
467	19.7036	19.7203	19.7203	19.8665	0.734131	0.734131	0.734131	0.734131	51.2091	448.875	-0	-500
468	19.7035	19.7202	19.7202	19.8664	0.734131	0.734131	0.734131	0.734131	51.2087	448.874	-0	-500
469	19.7034	19.7201	19.7201	19.8663	0.73413	0.73413	0.73413	0.73413	51.2084	448.873	-0	-500
470	19.7033	19.72	19.72	19.8663	0.73413	0.73413	0.73413	0.73413	51.2081	448.872	-0	-500
471	19.7032	19.7199	19.7199	19.8662	0.73413	0.73413	0.73413	0.73413	51.2077	448.87	-0	-500
472	19.7031	19.7198	19.7198	19.8661	0.73413	0.73413	0.73413	0.73413	51.2074	448.869	-0	-500
473	19.703	19.7197	19.7197	19.866	0.73413	0.73413	0.73413	0.73413	51.2071	448.868	-0	-500
474	19.703	19.7197	19.7197	19.8659	0.73413	0.73413	0.73413	0.73413	51.2068	448.867	-0	-500
475	19.7029	19.7196	19.7196	19.8658	0.734129	0.734129	0.734129	0.734129	51.2065	448.866	-0	-500
476	19.7028	19.7195	19.7195	19.8658	0.734129	0.734129	0.734129	0.734129	51.2063	448.866	-0	-500
477	19.7027	19.7194	19.7194	19.8657	0.734129	0.734129	0.734129	0.734129	51.2059	448.864	-0	-500
478	19.7027	19.7193	19.7193	19.8656	0.734129	0.734129	0.734129	0.734129	51.2056	448.863	-0	-500
479	19.7026	19.7193	19.7193	19.8655	0.734129	0.734129	0.734129	0.734129	51.2054	448.863	-0	-500
480	19.7025	19.7192	19.7192	19.8655	0.734129	0.734129	0.734129	0.734129	51.2051	448.862	-0	-500
