Time [h]	NetworkElement(id=101).FluidTemperature [C]	NetworkElement(id=102).FluidTemperature [C]	NetworkElement(id=201).FluidTemperature [C]	NetworkElement(id=301).FluidTemperature [C]	NetworkElement(id=101).FluidMassFlux [kg/s]	NetworkElement(id=102).FluidMassFlux [kg/s]	NetworkElement(id=201).FluidMassFlux [kg/s]	NetworkElement(id=301).FluidMassFlux [kg/s]	NetworkElement(id=101).FlowElementHeatLoss [W]	NetworkElement(id=102).FlowElementHeatLoss [W]	NetworkElement(id=201).FlowElementHeatLoss [W]	NetworkElement(id=301).FlowElementHeatLoss [W]
0	40	40	40	40	0.767033	0.767033	0.767033	0.767033	1.19237e+06	627740	-0	-500
1	38.8439	38.8639	38.8762	39.0493	0.765224	0.765224	0.765224	0.765224	123.542	687.899	-0	-500
2	38.5097	38.5297	38.5417	38.7142	0.764707	0.764707	0.764707	0.764707	121.788	682.46	-0	-500
3	38.1807	38.2006	38.2124	38.3845	0.764201	0.764201	0.764201	0.764201	120.687	678.459	-0	-500
4	37.8582	37.8781	37.8897	38.0612	0.763708	0.763708	0.763708	0.763708	119.526	674.21	-0	-500
5	37.5412	37.561	37.5725	37.7436	0.763225	0.763225	0.763225	0.763225	118.616	670.883	-0	-500
6	37.2288	37.2487	37.26	37.4309	0.762752	0.762752	0.762752	0.762752	117.841	668.228	-0	-500
7	36.9226	36.9424	36.9534	37.1237	0.76229	0.76229	0.76229	0.76229	116.015	662.649	-0	-500
8	36.622	36.6417	36.6526	36.8225	0.761839	0.761839	0.761839	0.761839	115.039	659.281	-0	-500
9	36.327	36.3467	36.3573	36.5267	0.761398	0.761398	0.761398	0.761398	113.856	655.151	-0	-500
10	36.0359	36.0556	36.0661	36.2354	0.760966	0.760966	0.760966	0.760966	113.338	653.122	-0	-500
11	35.7508	35.7704	35.7806	35.9493	0.760544	0.760544	0.760544	0.760544	111.562	647.67	-0	-500
12	35.4697	35.4893	35.4995	35.6679	0.760129	0.760129	0.760129	0.760129	111.319	646.283	-0	-500
13	35.1944	35.2139	35.2238	35.3916	0.759726	0.759726	0.759726	0.759726	109.586	640.821	-0	-500
14	34.9252	34.9447	34.9544	35.1219	0.759332	0.759332	0.759332	0.759332	108.673	637.609	-0	-500
15	34.6591	34.6785	34.6882	34.8554	0.758945	0.758945	0.758945	0.758945	108.15	635.67	-0	-500
16	34.3967	34.4161	34.4256	34.5924	0.758565	0.758565	0.758565	0.758565	107.128	632.358	-0	-500
17	34.1399	34.1592	34.1685	34.3349	0.758194	0.758194	0.758194	0.758194	105.833	628.191	-0	-500
18	33.8884	33.9077	33.9168	34.0828	0.757832	0.757832	0.757832	0.757832	104.88	624.974	-0	-500
19	33.6406	33.6598	33.6689	33.8346	0.757477	0.757477	0.757477	0.757477	104.175	622.537	-0	-500
20	33.3966	33.4158	33.4246	33.59	0.757128	0.757128	0.757128	0.757128	103.282	619.603	-0	-500
21	33.1572	33.1763	33.185	33.3501	0.756788	0.756788	0.756788	0.756788	102.226	616.181	-0	-500
22	32.9224	32.9415	32.9501	33.1147	0.756455	0.756455	0.756455	0.756455	101.31	613.145	-0	-500
23	32.6915	32.7106	32.719	32.8834	0.756129	0.756129	0.756129	0.756129	100.54	610.556	-0	-500
24	32.4643	32.4834	32.4916	32.6557	0.755809	0.755809	0.755809	0.755809	99.7087	607.824	-0	-500
25	32.2413	32.2603	32.2684	32.4321	0.755496	0.755496	0.755496	0.755496	98.7969	604.858	-0	-500
26	32.0223	32.0413	32.0492	32.2126	0.75519	0.75519	0.75519	0.75519	97.9422	602.05	-0	-500
27	31.8071	31.826	31.8339	31.997	0.754889	0.754889	0.754889	0.754889	97.1694	599.493	-0	-500
28	31.5955	31.6144	31.6221	31.7849	0.754595	0.754595	0.754595	0.754595	96.3863	596.925	-0	-500
29	31.3876	31.4065	31.414	31.5766	0.754307	0.754307	0.754307	0.754307	95.5677	594.262	-0	-500
30	31.1835	31.2023	31.2097	31.372	0.754025	0.754025	0.754025	0.754025	94.7756	591.674	-0	-500
31	30.9829	31.0017	31.009	31.1709	0.753749	0.753749	0.753749	0.753749	94.0301	589.231	-0	-500
32	30.7858	30.8045	30.8117	30.9734	0.753478	0.753478	0.753478	0.753478	93.2902	586.816	-0	-500
33	30.5921	30.6108	30.6178	30.7792	0.753212	0.753212	0.753212	0.753212	92.5395	584.378	-0	-500
34	30.4018	30.4205	30.4274	30.5885	0.752952	0.752952	0.752952	0.752952	91.8047	581.988	-0	-500
35	30.2149	30.2335	30.2403	30.4012	0.752698	0.752698	0.752698	0.752698	91.0979	579.687	-0	-500
36	30.0312	30.0497	30.0565	30.217	0.752448	0.752448	0.752448	0.752448	90.4015	577.424	-0	-500
37	29.8507	29.8692	29.8758	30.0361	0.752119	0.752119	0.752119	0.752119	89.7254	575.147	-0	-500
38	29.6733	29.6918	29.6983	29.8584	0.751779	0.751779	0.751779	0.751779	89.0708	572.916	-0	-500
39	29.4991	29.5176	29.5239	29.6838	0.751446	0.751446	0.751446	0.751446	88.4299	570.733	-0	-500
40	29.3279	29.3463	29.3526	29.5122	0.75112	0.75112	0.75112	0.75112	87.7989	568.588	-0	-500
41	29.1596	29.1781	29.1842	29.3436	0.7508	0.7508	0.7508	0.7508	87.1761	566.475	-0	-500
42	28.9944	29.0128	29.0188	29.178	0.750488	0.750488	0.750488	0.750488	86.5638	564.4	-0	-500
43	28.832	28.8504	28.8563	29.0153	0.750182	0.750182	0.750182	0.750182	85.963	562.366	-0	-500
44	28.6724	28.6908	28.6966	28.8554	0.749882	0.749882	0.749882	0.749882	85.3719	560.368	-0	-500
45	28.5157	28.534	28.5398	28.6983	0.749588	0.749588	0.749588	0.749588	84.7895	558.403	-0	-500
46	28.3616	28.38	28.3856	28.5439	0.7493	0.7493	0.7493	0.7493	84.2167	556.473	-0	-500
47	28.2103	28.2286	28.2342	28.3922	0.749018	0.749018	0.749018	0.749018	83.6541	554.579	-0	-500
48	28.0616	28.0799	28.0853	28.2432	0.748742	0.748742	0.748742	0.748742	83.1007	552.719	-0	-500
49	27.9155	27.9338	27.9391	28.0968	0.748472	0.748472	0.748472	0.748472	82.5561	550.89	-0	-500
50	27.772	27.7902	27.7955	27.953	0.748207	0.748207	0.748207	0.748207	82.0205	549.094	-0	-500
51	27.6309	27.6491	27.6543	27.8116	0.747947	0.747947	0.747947	0.747947	81.4939	547.331	-0	-500
52	27.4924	27.5106	27.5156	27.6728	0.747692	0.747692	0.747692	0.747692	80.9762	545.598	-0	-500
53	27.3562	27.3744	27.3794	27.5363	0.747443	0.747443	0.747443	0.747443	80.4668	543.897	-0	-500
54	27.2224	27.2406	27.2455	27.4022	0.747198	0.747198	0.747198	0.747198	79.9659	542.225	-0	-500
55	27.091	27.1091	27.114	27.2705	0.746959	0.746959	0.746959	0.746959	79.4735	540.583	-0	-500
56	26.9619	26.98	26.9847	27.1411	0.746724	0.746724	0.746724	0.746724	78.9892	538.97	-0	-500
57	26.835	26.8531	26.8577	27.014	0.746494	0.746494	0.746494	0.746494	78.513	537.386	-0	-500
58	26.7103	26.7284	26.733	26.889	0.746268	0.746268	0.746268	0.746268	78.0447	535.829	-0	-500
59	26.5878	26.6059	26.6104	26.7663	0.746047	0.746047	0.746047	0.746047	77.5843	534.301	-0	-500
60	26.4675	26.4855	26.49	26.6456	0.74583	0.74583	0.74583	0.74583	77.1316	532.799	-0	-500
61	26.3492	26.3672	26.3716	26.5271	0.745618	0.745618	0.745618	0.745618	76.6864	531.324	-0	-500
62	26.2331	26.251	26.2553	26.4107	0.745409	0.745409	0.745409	0.745409	76.2486	529.875	-0	-500
63	26.1189	26.1369	26.1411	26.2963	0.745205	0.745205	0.745205	0.745205	75.8183	528.452	-0	-500
64	26.0068	26.0247	26.0288	26.1839	0.745004	0.745004	0.745005	0.745005	75.3951	527.053	-0	-500
65	25.8966	25.9145	25.9186	26.0735	0.744808	0.744808	0.744808	0.744808	74.9791	525.68	-0	-500
66	25.7883	25.8062	25.8102	25.965	0.744615	0.744615	0.744615	0.744615	74.57	524.33	-0	-500
67	25.6819	25.6998	25.7037	25.8583	0.744427	0.744427	0.744427	0.744427	74.1678	523.005	-0	-500
68	25.5774	25.5953	25.5991	25.7536	0.744241	0.744241	0.744241	0.744241	73.7724	521.703	-0	-500
69	25.4747	25.4926	25.4963	25.6507	0.74406	0.74406	0.74406	0.74406	73.3837	520.424	-0	-500
70	25.3738	25.3916	25.3954	25.5495	0.743882	0.743882	0.743882	0.743882	73.0015	519.168	-0	-500
71	25.2747	25.2925	25.2961	25.4502	0.743707	0.743707	0.743707	0.743707	72.6258	517.933	-0	-500
72	25.1773	25.1951	25.1987	25.3526	0.743536	0.743536	0.743536	0.743536	72.2564	516.721	-0	-500
73	25.0816	25.0993	25.1029	25.2566	0.743368	0.743368	0.743368	0.743368	71.8932	515.53	-0	-500
74	24.9875	25.0053	25.0088	25.1624	0.743203	0.743203	0.743203	0.743203	71.5362	514.36	-0	-500
75	24.8951	24.9129	24.9163	25.0698	0.743041	0.743041	0.743041	0.743041	71.1852	513.21	-0	-500
76	24.8044	24.8221	24.8254	24.9788	0.742882	0.742882	0.742882	0.742882	70.8402	512.081	-0	-500
77	24.7152	24.7329	24.7362	24.8894	0.742727	0.742727	0.742727	0.742727	70.501	510.972	-0	-500
78	24.6275	24.6452	24.6485	24.8016	0.742574	0.742574	0.742574	0.742574	70.1675	509.882	-0	-500
79	24.5414	24.5591	24.5623	24.7153	0.742425	0.742425	0.742425	0.742425	69.8398	508.812	-0	-500
80	24.4568	24.4745	24.4776	24.6305	0.742278	0.742278	0.742278	0.742278	69.5175	507.76	-0	-500
81	24.3737	24.3914	24.3944	24.5472	0.742134	0.742134	0.742134	0.742134	69.2007	506.727	-0	-500
82	24.292	24.3097	24.3127	24.4654	0.741992	0.741992	0.741992	0.741992	68.8894	505.712	-0	-500
83	24.2118	24.2294	24.2324	24.385	0.741854	0.741854	0.741854	0.741854	68.5833	504.715	-0	-500
84	24.133	24.1506	24.1535	24.3059	0.741717	0.741717	0.741717	0.741717	68.2824	503.735	-0	-500
85	24.0555	24.0731	24.076	24.2283	0.741584	0.741584	0.741584	0.741584	67.9866	502.773	-0	-500
86	23.9794	23.997	23.9998	24.152	0.741453	0.741453	0.741453	0.741453	67.6959	501.828	-0	-500
87	23.9046	23.9222	23.9249	24.0771	0.741324	0.741324	0.741324	0.741324	67.4102	500.899	-0	-500
88	23.8311	23.8487	23.8514	24.0034	0.741198	0.741198	0.741198	0.741198	67.1293	499.987	-0	-500
89	23.759	23.7765	23.7792	23.9311	0.741074	0.741074	0.741074	0.741074	66.8532	499.091	-0	-500
90	23.688	23.7055	23.7082	23.86	0.740953	0.740953	0.740953	0.740953	66.5818	498.21	-0	-500
91	23.6183	23.6358	23.6384	23.7902	0.740834	0.740834	0.740834	0.740834	66.315	497.345	-0	-500
92	23.5499	23.5673	23.5699	23.7215	0.740717	0.740717	0.740717	0.740717	66.0528	496.495	-0	-500
93	23.4826	23.5001	23.5026	23.6541	0.740602	0.740602	0.740602	0.740602	65.795	495.661	-0	-500
94	23.4165	23.4339	23.4364	23.5879	0.740489	0.740489	0.740489	0.740489	65.5417	494.841	-0	-500
95	23.3515	23.369	23.3714	23.5228	0.740379	0.740379	0.740379	0.740379	65.2927	494.035	-0	-500
96	23.2877	23.3052	23.3075	23.4588	0.74027	0.74027	0.74027	0.74027	65.0479	493.243	-0	-500
97	23.225	23.2424	23.2448	23.396	0.740164	0.740164	0.740164	0.740164	64.8074	492.466	-0	-500
98	23.1634	23.1808	23.1831	23.3342	0.740059	0.740059	0.740059	0.740059	64.5709	491.702	-0	-500
99	23.1029	23.1203	23.1225	23.2736	0.739957	0.739957	0.739957	0.739957	64.3386	490.951	-0	-500
100	23.0434	23.0608	23.063	23.214	0.739856	0.739856	0.739856	0.739856	64.1102	490.214	-0	-500
101	22.985	23.0024	23.0045	23.1554	0.739757	0.739757	0.739757	0.739757	63.8857	489.489	-0	-500
102	22.9276	22.945	22.9471	23.0979	0.73966	0.73966	0.73966	0.73966	63.665	488.778	-0	-500
103	22.8712	22.8885	22.8906	23.0413	0.739565	0.739565	0.739565	0.739565	63.4481	488.078	-0	-500
104	22.8158	22.8331	22.8352	22.9858	0.739472	0.739472	0.739472	0.739472	63.235	487.392	-0	-500
105	22.7613	22.7786	22.7807	22.9312	0.73938	0.73938	0.73938	0.73938	63.0255	486.717	-0	-500
106	22.7078	22.7251	22.7271	22.8776	0.73929	0.73929	0.73929	0.73929	62.8196	486.054	-0	-500
107	22.6552	22.6726	22.6745	22.8249	0.739202	0.739202	0.739202	0.739202	62.6173	485.402	-0	-500
108	22.6036	22.6209	22.6228	22.7731	0.739115	0.739115	0.739115	0.739115	62.4184	484.762	-0	-500
109	22.5529	22.5701	22.572	22.7223	0.73903	0.73903	0.73903	0.73903	62.2229	484.134	-0	-500
110	22.503	22.5203	22.5221	22.6723	0.738946	0.738946	0.738946	0.738946	62.0308	483.516	-0	-500
111	22.454	22.4713	22.4731	22.6232	0.738864	0.738864	0.738864	0.738864	61.842	482.909	-0	-500
112	22.4059	22.4231	22.4249	22.575	0.738783	0.738783	0.738783	0.738783	61.6565	482.313	-0	-500
113	22.3586	22.3758	22.3776	22.5276	0.738704	0.738704	0.738704	0.738704	61.4741	481.728	-0	-500
114	22.3121	22.3293	22.3311	22.481	0.738627	0.738627	0.738627	0.738627	61.2949	481.152	-0	-500
115	22.2665	22.2837	22.2854	22.4352	0.73855	0.73855	0.73855	0.73855	61.1188	480.587	-0	-500
116	22.2216	22.2388	22.2405	22.3903	0.738475	0.738475	0.738475	0.738475	60.9457	480.031	-0	-500
117	22.1775	22.1947	22.1964	22.3461	0.738402	0.738402	0.738402	0.738402	60.7755	479.486	-0	-500
118	22.1342	22.1514	22.153	22.3027	0.73833	0.73833	0.73833	0.73833	60.6084	478.95	-0	-500
119	22.0917	22.1089	22.1104	22.26	0.738259	0.738259	0.738259	0.738259	60.4441	478.423	-0	-500
120	22.0499	22.067	22.0686	22.2181	0.738189	0.738189	0.738189	0.738189	60.2826	477.906	-0	-500
121	22.0088	22.026	22.0275	22.177	0.738121	0.738121	0.738121	0.738121	60.1239	477.397	-0	-500
122	21.9684	21.9856	21.9871	22.1365	0.738054	0.738054	0.738054	0.738054	59.9679	476.898	-0	-500
123	21.9288	21.9459	21.9474	22.0968	0.737988	0.737988	0.737988	0.737988	59.8147	476.407	-0	-500
124	21.8898	21.907	21.9084	22.0577	0.737924	0.737924	0.737924	0.737924	59.664	475.925	-0	-500
125	21.8515	21.8687	21.8701	22.0194	0.73786	0.73786	0.73786	0.73786	59.516	475.452	-0	-500
126	21.8139	21.8311	21.8325	21.9817	0.737798	0.737798	0.737798	0.737798	59.3705	474.986	-0	-500
127	21.777	21.7941	21.7955	21.9446	0.737737	0.737737	0.737737	0.737737	59.2276	474.529	-0	-500
128	21.7407	21.7578	21.7591	21.9083	0.737676	0.737676	0.737676	0.737676	59.0871	474.08	-0	-500
129	21.705	21.7221	21.7234	21.8725	0.737617	0.737617	0.737617	0.737617	58.949	473.639	-0	-500
130	21.67	21.6871	21.6884	21.8374	0.73756	0.73756	0.73756	0.73756	58.8134	473.205	-0	-500
131	21.6355	21.6526	21.6539	21.8029	0.737503	0.737503	0.737503	0.737503	58.68	472.779	-0	-500
132	21.6017	21.6188	21.62	21.7689	0.737447	0.737447	0.737447	0.737447	58.549	472.361	-0	-500
133	21.5684	21.5855	21.5868	21.7356	0.737392	0.737392	0.737392	0.737392	58.4202	471.95	-0	-500
134	21.5358	21.5528	21.5541	21.7029	0.737338	0.737338	0.737338	0.737338	58.2937	471.546	-0	-500
135	21.5037	21.5207	21.5219	21.6707	0.737285	0.737285	0.737285	0.737285	58.1693	471.149	-0	-500
136	21.4721	21.4892	21.4904	21.6391	0.737233	0.737233	0.737233	0.737233	58.0471	470.759	-0	-500
137	21.4412	21.4582	21.4594	21.6081	0.737182	0.737182	0.737182	0.737182	57.927	470.376	-0	-500
138	21.4107	21.4278	21.4289	21.5775	0.737132	0.737132	0.737132	0.737132	57.809	469.999	-0	-500
139	21.3808	21.3978	21.399	21.5476	0.737083	0.737083	0.737083	0.737083	57.6931	469.63	-0	-500
140	21.3514	21.3685	21.3696	21.5181	0.737035	0.737035	0.737035	0.737035	57.5791	469.266	-0	-500
141	21.3226	21.3396	21.3407	21.4892	0.736987	0.736987	0.736987	0.736987	57.4671	468.909	-0	-500
142	21.2942	21.3112	21.3123	21.4607	0.736941	0.736941	0.736941	0.736941	57.3571	468.559	-0	-500
143	21.2663	21.2833	21.2844	21.4328	0.736895	0.736895	0.736895	0.736895	57.2489	468.214	-0	-500
144	21.2389	21.2559	21.2569	21.4054	0.73685	0.73685	0.73685	0.73685	57.1427	467.876	-0	-500
145	21.212	21.229	21.23	21.3784	0.736806	0.736806	0.736806	0.736806	57.0382	467.543	-0	-500
146	21.1856	21.2026	21.2036	21.3519	0.736762	0.736762	0.736762	0.736762	56.9356	467.216	-0	-500
147	21.1596	21.1766	21.1776	21.3258	0.73672	0.73672	0.73672	0.73672	56.8348	466.895	-0	-500
148	21.1341	21.1511	21.152	21.3003	0.736678	0.736678	0.736678	0.736678	56.7357	466.58	-0	-500
149	21.109	21.126	21.1269	21.2751	0.736637	0.736637	0.736637	0.736637	56.6383	466.27	-0	-500
150	21.0844	21.1013	21.1022	21.2504	0.736597	0.736597	0.736597	0.736597	56.5426	465.966	-0	-500
151	21.0601	21.0771	21.078	21.2262	0.736557	0.736557	0.736557	0.736557	56.4486	465.666	-0	-500
152	21.0364	21.0533	21.0542	21.2023	0.736518	0.736518	0.736518	0.736518	56.3562	465.373	-0	-500
153	21.013	21.0299	21.0308	21.1789	0.73648	0.73648	0.73648	0.73648	56.2654	465.084	-0	-500
154	20.99	21.007	21.0078	21.1559	0.736442	0.736442	0.736442	0.736442	56.1762	464.8	-0	-500
155	20.9675	20.9844	20.9853	21.1333	0.736406	0.736406	0.736406	0.736406	56.0885	464.521	-0	-500
156	20.9453	20.9622	20.9631	21.1111	0.736369	0.736369	0.736369	0.736369	56.0023	464.248	-0	-500
157	20.9235	20.9405	20.9413	21.0892	0.736334	0.736334	0.736334	0.736334	55.9177	463.979	-0	-500
158	20.9021	20.9191	20.9199	21.0678	0.736299	0.736299	0.736299	0.736299	55.8345	463.714	-0	-500
159	20.8811	20.898	20.8988	21.0467	0.736265	0.736265	0.736265	0.736265	55.7528	463.455	-0	-500
160	20.8604	20.8774	20.8781	21.026	0.736231	0.736231	0.736231	0.736231	55.6724	463.199	-0	-500
161	20.8401	20.8571	20.8578	21.0057	0.736198	0.736198	0.736198	0.736198	55.5935	462.949	-0	-500
162	20.8202	20.8371	20.8379	20.9857	0.736165	0.736165	0.736165	0.736165	55.5159	462.702	-0	-500
163	20.8006	20.8175	20.8182	20.966	0.736133	0.736133	0.736133	0.736133	55.4397	462.46	-0	-500
164	20.7814	20.7983	20.799	20.9467	0.736102	0.736102	0.736102	0.736102	55.3648	462.223	-0	-500
165	20.7624	20.7793	20.78	20.9278	0.736071	0.736071	0.736071	0.736071	55.2912	461.989	-0	-500
166	20.7438	20.7607	20.7614	20.9091	0.736041	0.736041	0.736041	0.736041	55.2189	461.759	-0	-500
167	20.7256	20.7425	20.7432	20.8908	0.736011	0.736011	0.736011	0.736011	55.1479	461.534	-0	-500
168	20.7076	20.7245	20.7252	20.8729	0.735982	0.735982	0.735982	0.735982	55.078	461.312	-0	-500
169	20.69	20.7069	20.7076	20.8552	0.735953	0.735953	0.735953	0.735953	55.0094	461.095	-0	-500
170	20.6727	20.6896	20.6902	20.8378	0.735925	0.735925	0.735925	0.735925	54.942	460.881	-0	-500
171	20.6557	20.6726	20.6732	20.8208	0.735898	0.735898	0.735898	0.735898	54.8758	460.671	-0	-500
172	20.639	20.6558	20.6565	20.804	0.735871	0.735871	0.735871	0.735871	54.8107	460.464	-0	-500
173	20.6225	20.6394	20.64	20.7875	0.735844	0.735844	0.735844	0.735844	54.7467	460.261	-0	-500
174	20.6064	20.6233	20.6239	20.7714	0.735818	0.735818	0.735818	0.735818	54.6838	460.062	-0	-500
175	20.5905	20.6074	20.608	20.7555	0.735792	0.735792	0.735792	0.735792	54.6221	459.866	-0	-500
176	20.5749	20.5918	20.5924	20.7399	0.735767	0.735767	0.735767	0.735767	54.5614	459.674	-0	-500
177	20.5596	20.5765	20.5771	20.7245	0.735742	0.735742	0.735742	0.735742	54.5018	459.485	-0	-500
178	20.5446	20.5614	20.562	20.7094	0.735717	0.735717	0.735717	0.735717	54.4432	459.299	-0	-500
179	20.5298	20.5467	20.5472	20.6946	0.735693	0.735693	0.735693	0.735693	54.3856	459.117	-0	-500
180	20.5153	20.5321	20.5327	20.6801	0.73567	0.73567	0.73567	0.73567	54.329	458.937	-0	-500
181	20.501	20.5179	20.5184	20.6658	0.735647	0.735647	0.735647	0.735647	54.2734	458.761	-0	-500
182	20.487	20.5038	20.5044	20.6517	0.735624	0.735624	0.735624	0.735624	54.2188	458.588	-0	-500
183	20.4732	20.4901	20.4906	20.6379	0.735602	0.735602	0.735602	0.735602	54.1651	458.418	-0	-500
184	20.4597	20.4765	20.477	20.6243	0.73558	0.73558	0.73558	0.73558	54.1124	458.251	-0	-500
185	20.4464	20.4632	20.4637	20.611	0.735558	0.735558	0.735558	0.735558	54.0606	458.087	-0	-500
186	20.4333	20.4502	20.4506	20.5979	0.735537	0.735537	0.735537	0.735537	54.0096	457.926	-0	-500
187	20.4205	20.4373	20.4378	20.585	0.735516	0.735516	0.735516	0.735516	53.9596	457.767	-0	-500
188	20.4079	20.4247	20.4252	20.5724	0.735496	0.735496	0.735496	0.735496	53.9104	457.612	-0	-500
189	20.3955	20.4123	20.4128	20.56	0.735476	0.735476	0.735476	0.735476	53.8621	457.459	-0	-500
190	20.3833	20.4001	20.4006	20.5478	0.735456	0.735456	0.735456	0.735456	53.8147	457.308	-0	-500
191	20.3713	20.3882	20.3886	20.5358	0.735437	0.735437	0.735437	0.735437	53.768	457.161	-0	-500
192	20.3596	20.3764	20.3768	20.524	0.735418	0.735418	0.735418	0.735418	53.7222	457.016	-0	-500
193	20.348	20.3648	20.3653	20.5124	0.735399	0.735399	0.735399	0.735399	53.6772	456.873	-0	-500
194	20.3367	20.3535	20.3539	20.5011	0.735381	0.735381	0.735381	0.735381	53.6329	456.733	-0	-500
195	20.3255	20.3423	20.3428	20.4899	0.735363	0.735363	0.735363	0.735363	53.5894	456.596	-0	-500
196	20.3146	20.3314	20.3318	20.4789	0.735345	0.735345	0.735345	0.735345	53.5467	456.46	-0	-500
197	20.3038	20.3206	20.321	20.4681	0.735328	0.735328	0.735328	0.735328	53.5047	456.328	-0	-500
198	20.2933	20.31	20.3104	20.4575	0.735311	0.735311	0.735311	0.735311	53.4635	456.197	-0	-500
199	20.2829	20.2997	20.3	20.4471	0.735294	0.735294	0.735294	0.735294	53.423	456.069	-0	-500
200	20.2727	20.2894	20.2898	20.4369	0.735277	0.735277	0.735277	0.735277	53.3831	455.943	-0	-500
201	20.2626	20.2794	20.2798	20.4268	0.735261	0.735261	0.735261	0.735261	53.344	455.819	-0	-500
202	20.2528	20.2696	20.2699	20.4169	0.735245	0.735245	0.735245	0.735245	53.3056	455.698	-0	-500
203	20.2431	20.2599	20.2602	20.4072	0.73523	0.73523	0.73523	0.73523	53.2678	455.578	-0	-500
204	20.2336	20.2504	20.2507	20.3977	0.735214	0.735214	0.735214	0.735214	53.2307	455.461	-0	-500
205	20.2242	20.241	20.2414	20.3883	0.735199	0.735199	0.735199	0.735199	53.1942	455.345	-0	-500
206	20.215	20.2318	20.2322	20.3791	0.735184	0.735184	0.735184	0.735184	53.1583	455.232	-0	-500
207	20.206	20.2228	20.2231	20.3701	0.73517	0.73517	0.73517	0.73517	53.1231	455.121	-0	-500
208	20.1971	20.2139	20.2143	20.3612	0.735156	0.735156	0.735156	0.735156	53.0885	455.011	-0	-500
209	20.1884	20.2052	20.2055	20.3525	0.735142	0.735142	0.735142	0.735142	53.0545	454.904	-0	-500
210	20.1799	20.1966	20.197	20.3439	0.735128	0.735128	0.735128	0.735128	53.0211	454.798	-0	-500
211	20.1715	20.1882	20.1885	20.3354	0.735114	0.735114	0.735114	0.735114	52.9883	454.694	-0	-500
212	20.1632	20.18	20.1803	20.3272	0.735101	0.735101	0.735101	0.735101	52.9561	454.593	-0	-500
213	20.1551	20.1718	20.1722	20.319	0.735088	0.735088	0.735088	0.735088	52.9244	454.492	-0	-500
214	20.1471	20.1639	20.1642	20.311	0.735075	0.735075	0.735075	0.735075	52.8932	454.394	-0	-500
215	20.1393	20.156	20.1563	20.3032	0.735062	0.735062	0.735062	0.735062	52.8626	454.297	-0	-500
216	20.1316	20.1483	20.1486	20.2955	0.73505	0.73505	0.73505	0.73505	52.8326	454.202	-0	-500
217	20.124	20.1408	20.141	20.2879	0.735038	0.735038	0.735038	0.735038	52.803	454.109	-0	-500
218	20.1166	20.1333	20.1336	20.2804	0.735026	0.735026	0.735026	0.735026	52.774	454.017	-0	-500
219	20.1093	20.126	20.1263	20.2731	0.735014	0.735014	0.735014	0.735014	52.7455	453.927	-0	-500
220	20.1021	20.1188	20.1191	20.2659	0.735002	0.735002	0.735002	0.735002	52.7175	453.839	-0	-500
221	20.095	20.1118	20.1121	20.2588	0.734991	0.734991	0.734991	0.734991	52.6899	453.752	-0	-500
222	20.0881	20.1049	20.1051	20.2519	0.73498	0.73498	0.73498	0.73498	52.6629	453.666	-0	-500
223	20.0813	20.098	20.0983	20.2451	0.734969	0.734969	0.734969	0.734969	52.6363	453.582	-0	-500
224	20.0746	20.0914	20.0916	20.2384	0.734958	0.734958	0.734958	0.734958	52.6102	453.5	-0	-500
225	20.068	20.0848	20.085	20.2318	0.734948	0.734948	0.734948	0.734948	52.5845	453.419	-0	-500
226	20.0616	20.0783	20.0786	20.2253	0.734937	0.734937	0.734937	0.734937	52.5593	453.339	-0	-500
227	20.0552	20.072	20.0722	20.219	0.734926	0.734926	0.734926	0.734926	52.5345	453.26	-0	-500
228	20.049	20.0657	20.066	20.2127	0.734916	0.734916	0.734916	0.734916	52.5101	453.183	-0	-500
229	20.0429	20.0596	20.0599	20.2066	0.734906	0.734906	0.734906	0.734906	52.4862	453.108	-0	-500
230	20.0369	20.0536	20.0538	20.2005	0.734896	0.734896	0.734896	0.734896	52.4627	453.034	-0	-500
231	20.031	20.0477	20.0479	20.1946	0.734887	0.734887	0.734887	0.734887	52.4396	452.961	-0	-500
232	20.0251	20.0419	20.0421	20.1888	0.734878	0.734878	0.734878	0.734878	52.4169	452.889	-0	-500
233	20.0194	20.0362	20.0364	20.1831	0.734868	0.734868	0.734868	0.734868	52.3946	452.819	-0	-500
234	20.0138	20.0306	20.0308	20.1774	0.734859	0.734859	0.734859	0.734859	52.3727	452.749	-0	-500
235	20.0083	20.0251	20.0253	20.1719	0.734851	0.734851	0.734851	0.734851	52.3512	452.681	-0	-500
236	20.0029	20.0196	20.0198	20.1665	0.734842	0.734842	0.734842	0.734842	52.3301	452.615	-0	-500
237	19.9976	20.0143	20.0145	20.1612	0.734833	0.734833	0.734833	0.734833	52.3093	452.549	-0	-500
238	19.9924	20.0091	20.0093	20.1559	0.73482	0.73482	0.73482	0.73482	52.2889	452.485	-0	-500
239	19.9872	20.004	20.0041	20.1508	0.734808	0.734808	0.734808	0.734808	52.2687	452.422	-0	-500
240	19.9822	19.9989	19.9991	20.1457	0.734796	0.734796	0.734796	0.734796	52.249	452.36	-0	-500
241	19.9772	19.9939	19.9941	20.1408	0.734784	0.734784	0.734784	0.734784	52.2306	452.298	-0	-500
242	19.9724	19.9891	19.9893	20.1359	0.734772	0.734772	0.734772	0.734772	52.2124	452.237	-0	-500
243	19.9676	19.9843	19.9845	20.1311	0.734761	0.734761	0.734761	0.734761	52.1946	452.177	-0	-500
244	19.9629	19.9796	19.9798	20.1264	0.73475	0.73475	0.73475	0.73475	52.177	452.118	-0	-500
245	19.9582	19.975	19.9751	20.1217	0.734739	0.734739	0.734739	0.734739	52.1598	452.06	-0	-500
246	19.9537	19.9704	19.9706	20.1172	0.734728	0.734728	0.734728	0.734728	52.1429	452.003	-0	-500
247	19.9492	19.966	19.9661	20.1127	0.734717	0.734717	0.734717	0.734717	52.1263	451.948	-0	-500
248	19.9449	19.9616	19.9617	20.1083	0.734706	0.734706	0.734706	0.734706	52.1099	451.893	-0	-500
249	19.9406	19.9573	19.9574	20.104	0.734696	0.734696	0.734696	0.734696	52.0939	451.839	-0	-500
250	19.9363	19.953	19.9532	20.0998	0.734685	0.734685	0.734685	0.734685	52.078	451.785	-0	-500
251	19.9322	19.9489	19.949	20.0956	0.734675	0.734675	0.734675	0.734675	52.0625	451.733	-0	-500
252	19.9281	19.9448	19.945	20.0915	0.734665	0.734665	0.734665	0.734665	52.0473	451.682	-0	-500
253	19.9241	19.9408	19.9409	20.0875	0.734656	0.734656	0.734656	0.734656	52.0323	451.632	-0	-500
254	19.9201	19.9368	19.937	20.0835	0.734646	0.734646	0.734646	0.734646	52.0176	451.583	-0	-500
255	19.9163	19.933	19.9331	20.0797	0.734637	0.734637	0.734637	0.734637	52.0032	451.534	-0	-500
256	19.9125	19.9292	19.9293	20.0759	0.734628	0.734628	0.734628	0.734628	51.989	451.487	-0	-500
257	19.9087	19.9254	19.9256	20.0721	0.734619	0.734619	0.734619	0.734619	51.975	451.44	-0	-500
258	19.905	19.9218	19.9219	20.0684	0.73461	0.73461	0.73461	0.73461	51.9613	451.394	-0	-500
259	19.9014	19.9181	19.9183	20.0648	0.734602	0.734602	0.734602	0.734602	51.9478	451.349	-0	-500
260	19.8979	19.9146	19.9147	20.0612	0.734593	0.734593	0.734593	0.734593	51.9346	451.305	-0	-500
261	19.8944	19.9111	19.9112	20.0578	0.734585	0.734585	0.734585	0.734585	51.9216	451.261	-0	-500
262	19.891	19.9077	19.9078	20.0543	0.734577	0.734577	0.734577	0.734577	51.9088	451.218	-0	-500
263	19.8876	19.9043	19.9044	20.051	0.734569	0.734569	0.734569	0.734569	51.8963	451.176	-0	-500
264	19.8843	19.901	19.9011	20.0476	0.734561	0.734561	0.734561	0.734561	51.884	451.135	-0	-500
265	19.8811	19.8978	19.8979	20.0444	0.734553	0.734553	0.734553	0.734553	51.8718	451.094	-0	-500
266	19.8779	19.8946	19.8947	20.0412	0.734545	0.734545	0.734545	0.734545	51.8599	451.054	-0	-500
267	19.8747	19.8914	19.8916	20.038	0.734538	0.734538	0.734538	0.734538	51.8482	451.015	-0	-500
268	19.8717	19.8884	19.8885	20.035	0.73453	0.73453	0.73453	0.73453	51.8367	450.976	-0	-500
269	19.8686	19.8853	19.8854	20.0319	0.734523	0.734523	0.734523	0.734523	51.8254	450.939	-0	-500
270	19.8657	19.8824	19.8825	20.0289	0.734516	0.734516	0.734516	0.734516	51.8143	450.901	-0	-500
271	19.8627	19.8794	19.8795	20.026	0.734509	0.734509	0.734509	0.734509	51.8034	450.865	-0	-500
272	19.8599	19.8766	19.8767	20.0231	0.734502	0.734502	0.734502	0.734502	51.7927	450.829	-0	-500
273	19.857	19.8737	19.8738	20.0203	0.734496	0.734496	0.734496	0.734496	51.7822	450.793	-0	-500
274	19.8543	19.871	19.8711	20.0175	0.734489	0.734489	0.734489	0.734489	51.7718	450.759	-0	-500
275	19.8515	19.8682	19.8684	20.0148	0.734482	0.734482	0.734482	0.734482	51.7617	450.725	-0	-500
276	19.8489	19.8656	19.8657	20.0121	0.734476	0.734476	0.734476	0.734476	51.7517	450.691	-0	-500
277	19.8462	19.8629	19.863	20.0095	0.73447	0.73447	0.73447	0.73447	51.7419	450.658	-0	-500
278	19.8437	19.8604	19.8605	20.0069	0.734464	0.734464	0.734464	0.734464	51.7322	450.626	-0	-500
279	19.8411	19.8578	19.8579	20.0044	0.734458	0.734458	0.734458	0.734458	51.7228	450.594	-0	-500
280	19.8386	19.8553	19.8554	20.0019	0.734452	0.734452	0.734452	0.734452	51.7135	450.563	-0	-500
281	19.8362	19.8529	19.853	19.9994	0.734446	0.734446	0.734446	0.734446	51.7043	450.533	-0	-500
282	19.8338	19.8505	19.8506	19.997	0.73444	0.73444	0.73444	0.73444	51.6953	450.502	-0	-500
283	19.8314	19.8481	19.8482	19.9946	0.734434	0.734434	0.734434	0.734434	51.6865	450.473	-0	-500
284	19.8291	19.8458	19.8459	19.9923	0.734429	0.734429	0.734429	0.734429	51.6778	450.444	-0	-500
285	19.8268	19.8435	19.8436	19.99	0.734423	0.734423	0.734423	0.734423	51.6693	450.415	-0	-500
286	19.8246	19.8413	19.8413	19.9878	0.734418	0.734418	0.734418	0.734418	51.6609	450.387	-0	-500
287	19.8224	19.8391	19.8391	19.9856	0.734413	0.734413	0.734413	0.734413	51.6527	450.36	-0	-500
288	19.8202	19.8369	19.837	19.9834	0.734408	0.734408	0.734408	0.734408	51.6446	450.333	-0	-500
289	19.8181	19.8348	19.8348	19.9813	0.734403	0.734403	0.734403	0.734403	51.6367	450.306	-0	-500
290	19.816	19.8327	19.8327	19.9792	0.734398	0.734398	0.734398	0.734398	51.6289	450.28	-0	-500
291	19.8139	19.8306	19.8307	19.9771	0.734393	0.734393	0.734393	0.734393	51.6212	450.254	-0	-500
292	19.8119	19.8286	19.8287	19.9751	0.734388	0.734388	0.734388	0.734388	51.6137	450.229	-0	-500
293	19.8099	19.8266	19.8267	19.9731	0.734383	0.734383	0.734383	0.734383	51.6063	450.204	-0	-500
294	19.808	19.8247	19.8247	19.9711	0.734379	0.734379	0.734379	0.734379	51.599	450.18	-0	-500
295	19.8061	19.8227	19.8228	19.9692	0.734374	0.734374	0.734374	0.734374	51.5919	450.156	-0	-500
296	19.8042	19.8209	19.8209	19.9673	0.73437	0.73437	0.73437	0.73437	51.5848	450.132	-0	-500
297	19.8023	19.819	19.8191	19.9655	0.734365	0.734365	0.734365	0.734365	51.5779	450.109	-0	-500
298	19.8005	19.8172	19.8173	19.9637	0.734361	0.734361	0.734361	0.734361	51.5712	450.087	-0	-500
299	19.7987	19.8154	19.8155	19.9619	0.734357	0.734357	0.734357	0.734357	51.5645	450.064	-0	-500
300	19.797	19.8137	19.8137	19.9601	0.734352	0.734352	0.734352	0.734352	51.558	450.042	-0	-500
301	19.7952	19.8119	19.812	19.9584	0.734348	0.734348	0.734348	0.734348	51.5515	450.021	-0	-500
302	19.7936	19.8103	19.8103	19.9567	0.734344	0.734344	0.734344	0.734344	51.5452	450	-0	-500
303	19.7919	19.8086	19.8087	19.955	0.73434	0.73434	0.73434	0.73434	51.539	449.979	-0	-500
304	19.7903	19.807	19.807	19.9534	0.734336	0.734336	0.734336	0.734336	51.5329	449.959	-0	-500
305	19.7887	19.8054	19.8054	19.9518	0.734333	0.734333	0.734333	0.734333	51.5269	449.938	-0	-500
306	19.7871	19.8038	19.8038	19.9502	0.734329	0.734329	0.734329	0.734329	51.521	449.919	-0	-500
307	19.7855	19.8022	19.8023	19.9487	0.734325	0.734325	0.734325	0.734325	51.5152	449.899	-0	-500
308	19.784	19.8007	19.8008	19.9471	0.734322	0.734322	0.734322	0.734322	51.5096	449.88	-0	-500
309	19.7825	19.7992	19.7993	19.9456	0.734319	0.734319	0.734319	0.734319	51.504	449.862	-0	-500
310	19.781	19.7977	19.7978	19.9442	0.734316	0.734316	0.734316	0.734316	51.4985	449.844	-0	-500
311	19.7796	19.7963	19.7963	19.9427	0.734312	0.734312	0.734312	0.734312	51.4932	449.826	-0	-500
312	19.7782	19.7949	19.7949	19.9413	0.734309	0.734309	0.734309	0.734309	51.4879	449.808	-0	-500
313	19.7768	19.7935	19.7935	19.9399	0.734305	0.734305	0.734305	0.734305	51.4826	449.791	-0	-500
314	19.7754	19.7921	19.7922	19.9385	0.734302	0.734302	0.734302	0.734302	51.4775	449.773	-0	-500
315	19.7741	19.7908	19.7908	19.9372	0.734299	0.734299	0.734299	0.734299	51.4725	449.757	-0	-500
316	19.7728	19.7894	19.7895	19.9358	0.734296	0.734296	0.734296	0.734296	51.4676	449.74	-0	-500
317	19.7715	19.7881	19.7882	19.9345	0.734293	0.734293	0.734293	0.734293	51.4627	449.724	-0	-500
318	19.7702	19.7869	19.7869	19.9333	0.73429	0.73429	0.73429	0.73429	51.4579	449.708	-0	-500
319	19.7689	19.7856	19.7857	19.932	0.734287	0.734287	0.734287	0.734287	51.4533	449.692	-0	-500
320	19.7677	19.7844	19.7844	19.9308	0.734284	0.734284	0.734284	0.734284	51.4487	449.677	-0	-500
321	19.7665	19.7832	19.7832	19.9296	0.734281	0.734281	0.734281	0.734281	51.4441	449.662	-0	-500
322	19.7653	19.782	19.782	19.9284	0.734278	0.734278	0.734278	0.734278	51.4397	449.647	-0	-500
323	19.7641	19.7808	19.7809	19.9272	0.734275	0.734275	0.734275	0.734275	51.4353	449.632	-0	-500
324	19.763	19.7797	19.7797	19.9261	0.734272	0.734272	0.734272	0.734272	51.431	449.618	-0	-500
325	19.7618	19.7785	19.7786	19.9249	0.73427	0.73427	0.73427	0.73427	51.4268	449.604	-0	-500
326	19.7607	19.7774	19.7775	19.9238	0.734267	0.734267	0.734267	0.734267	51.4227	449.59	-0	-500
327	19.7596	19.7763	19.7764	19.9227	0.734264	0.734264	0.734264	0.734264	51.4186	449.576	-0	-500
328	19.7586	19.7753	19.7753	19.9216	0.734262	0.734262	0.734262	0.734262	51.4146	449.563	-0	-500
329	19.7575	19.7742	19.7743	19.9206	0.734259	0.734259	0.734259	0.734259	51.4107	449.55	-0	-500
330	19.7565	19.7732	19.7732	19.9196	0.734257	0.734257	0.734257	0.734257	51.4068	449.537	-0	-500
331	19.7555	19.7722	19.7722	19.9185	0.734254	0.734254	0.734254	0.734254	51.403	449.524	-0	-500
332	19.7545	19.7712	19.7712	19.9175	0.734252	0.734252	0.734252	0.734252	51.3993	449.512	-0	-500
333	19.7535	19.7702	19.7702	19.9166	0.734249	0.734249	0.734249	0.734249	51.3956	449.499	-0	-500
334	19.7525	19.7692	19.7693	19.9156	0.734247	0.734247	0.734247	0.734247	51.3921	449.487	-0	-500
335	19.7516	19.7683	19.7683	19.9146	0.734244	0.734244	0.734244	0.734244	51.3885	449.475	-0	-500
336	19.7507	19.7674	19.7674	19.9137	0.734243	0.734243	0.734243	0.734243	51.3851	449.464	-0	-500
337	19.7498	19.7664	19.7665	19.9128	0.73424	0.73424	0.73424	0.73424	51.3816	449.452	-0	-500
338	19.7489	19.7655	19.7656	19.9119	0.734239	0.734239	0.734239	0.734239	51.3783	449.441	-0	-500
339	19.748	19.7647	19.7647	19.911	0.734236	0.734236	0.734236	0.734236	51.3749	449.43	-0	-500
340	19.7471	19.7638	19.7638	19.9102	0.734234	0.734234	0.734234	0.734234	51.3718	449.419	-0	-500
341	19.7463	19.7629	19.763	19.9093	0.734232	0.734232	0.734232	0.734232	51.3685	449.408	-0	-500
342	19.7454	19.7621	19.7621	19.9085	0.73423	0.73423	0.73423	0.73423	51.3655	449.398	-0	-500
343	19.7446	19.7613	19.7613	19.9076	0.734228	0.734228	0.734228	0.734228	51.3623	449.387	-0	-500
344	19.7438	19.7605	19.7605	19.9068	0.734226	0.734226	0.734226	0.734226	51.3594	449.378	-0	-500
345	19.743	19.7597	19.7597	19.906	0.734224	0.734224	0.734224	0.734224	51.3564	449.367	-0	-500
346	19.7422	19.7589	19.7589	19.9053	0.734223	0.734223	0.734223	0.734223	51.3535	449.358	-0	-500
347	19.7415	19.7581	19.7582	19.9045	0.73422	0.73422	0.73422	0.73422	51.3506	449.348	-0	-500
348	19.7407	19.7574	19.7574	19.9037	0.734219	0.734219	0.734219	0.734219	51.3478	449.339	-0	-500
349	19.74	19.7567	19.7567	19.903	0.734218	0.734218	0.734218	0.734218	51.3451	449.33	-0	-500
350	19.7392	19.7559	19.756	19.9023	0.734216	0.734216	0.734216	0.734216	51.3424	449.321	-0	-500
351	19.7385	19.7552	19.7552	19.9015	0.734213	0.734213	0.734213	0.734213	51.3396	449.311	-0	-500
352	19.7378	19.7545	19.7545	19.9008	0.734212	0.734212	0.734212	0.734212	51.337	449.303	-0	-500
353	19.7371	19.7538	19.7538	19.9002	0.734211	0.734211	0.734211	0.734211	51.3345	449.295	-0	-500
354	19.7365	19.7531	19.7532	19.8995	0.734209	0.734209	0.734209	0.734209	51.332	449.286	-0	-500
355	19.7358	19.7525	19.7525	19.8988	0.734208	0.734208	0.734208	0.734208	51.3295	449.278	-0	-500
356	19.7351	19.7518	19.7518	19.8982	0.734205	0.734205	0.734205	0.734205	51.327	449.269	-0	-500
357	19.7345	19.7512	19.7512	19.8975	0.734204	0.734204	0.734204	0.734204	51.3246	449.261	-0	-500
358	19.7339	19.7506	19.7506	19.8969	0.734203	0.734203	0.734203	0.734203	51.3223	449.254	-0	-500
359	19.7332	19.7499	19.75	19.8963	0.734201	0.734201	0.734201	0.734201	51.32	449.246	-0	-500
360	19.7326	19.7493	19.7493	19.8957	0.7342	0.7342	0.7342	0.7342	51.3177	449.239	-0	-500
361	19.732	19.7487	19.7487	19.8951	0.734199	0.734199	0.734199	0.734199	51.3155	449.231	-0	-500
362	19.7315	19.7481	19.7482	19.8945	0.734198	0.734198	0.734198	0.734198	51.3133	449.224	-0	-500
363	19.7309	19.7476	19.7476	19.8939	0.734196	0.734196	0.734196	0.734196	51.3111	449.216	-0	-500
364	19.7303	19.747	19.747	19.8933	0.734195	0.734195	0.734195	0.734195	51.309	449.209	-0	-500
365	19.7297	19.7464	19.7465	19.8928	0.734194	0.734194	0.734194	0.734194	51.3069	449.202	-0	-500
366	19.7292	19.7459	19.7459	19.8922	0.734192	0.734192	0.734192	0.734192	51.3049	449.196	-0	-500
367	19.7287	19.7453	19.7454	19.8917	0.734191	0.734191	0.734191	0.734191	51.3029	449.189	-0	-500
368	19.7281	19.7448	19.7448	19.8911	0.73419	0.73419	0.73419	0.73419	51.3009	449.182	-0	-500
369	19.7276	19.7443	19.7443	19.8906	0.734188	0.734188	0.734188	0.734188	51.2989	449.176	-0	-500
370	19.7271	19.7438	19.7438	19.8901	0.734187	0.734187	0.734187	0.734187	51.297	449.169	-0	-500
371	19.7266	19.7433	19.7433	19.8896	0.734186	0.734186	0.734186	0.734186	51.2952	449.163	-0	-500
372	19.7261	19.7428	19.7428	19.8891	0.734185	0.734185	0.734185	0.734185	51.2933	449.157	-0	-500
373	19.7256	19.7423	19.7423	19.8886	0.734183	0.734183	0.734183	0.734183	51.2915	449.151	-0	-500
374	19.7252	19.7418	19.7419	19.8881	0.734182	0.734182	0.734182	0.734182	51.2897	449.145	-0	-500
375	19.7247	19.7414	19.7414	19.8877	0.734181	0.734181	0.734181	0.734181	51.288	449.139	-0	-500
376	19.7242	19.7409	19.7409	19.8872	0.734179	0.734179	0.734179	0.734179	51.2862	449.133	-0	-500
377	19.7238	19.7405	19.7405	19.8868	0.734178	0.734178	0.734178	0.734178	51.2845	449.127	-0	-500
378	19.7233	19.74	19.74	19.8863	0.734178	0.734178	0.734178	0.734178	51.2829	449.122	-0	-500
379	19.7229	19.7396	19.7396	19.8859	0.734177	0.734177	0.734177	0.734177	51.2813	449.117	-0	-500
380	19.7225	19.7392	19.7392	19.8855	0.734176	0.734176	0.734176	0.734176	51.2797	449.111	-0	-500
381	19.722	19.7387	19.7387	19.885	0.734174	0.734174	0.734174	0.734174	51.2781	449.106	-0	-500
382	19.7216	19.7383	19.7383	19.8846	0.734173	0.734173	0.734173	0.734173	51.2765	449.1	-0	-500
383	19.7212	19.7379	19.7379	19.8842	0.734173	0.734173	0.734173	0.734173	51.2751	449.096	-0	-500
384	19.7208	19.7375	19.7375	19.8838	0.734172	0.734172	0.734172	0.734172	51.2736	449.091	-0	-500
385	19.7204	19.7371	19.7371	19.8834	0.734171	0.734171	0.734171	0.734171	51.2721	449.086	-0	-500
386	19.7201	19.7367	19.7368	19.883	0.734169	0.734169	0.734169	0.734169	51.2706	449.08	-0	-500
387	19.7197	19.7364	19.7364	19.8827	0.734169	0.734169	0.734169	0.734169	51.2693	449.076	-0	-500
388	19.7193	19.736	19.736	19.8823	0.734168	0.734168	0.734168	0.734168	51.2679	449.072	-0	-500
389	19.7189	19.7356	19.7356	19.8819	0.734167	0.734167	0.734167	0.734167	51.2664	449.067	-0	-500
390	19.7186	19.7353	19.7353	19.8816	0.734167	0.734167	0.734167	0.734167	51.2652	449.063	-0	-500
391	19.7182	19.7349	19.7349	19.8812	0.734166	0.734166	0.734166	0.734166	51.2639	449.058	-0	-500
392	19.7179	19.7346	19.7346	19.8809	0.734164	0.734164	0.734164	0.734164	51.2625	449.054	-0	-500
393	19.7175	19.7342	19.7342	19.8805	0.734164	0.734164	0.734164	0.734164	51.2613	449.05	-0	-500
394	19.7172	19.7339	19.7339	19.8802	0.734163	0.734163	0.734163	0.734163	51.26	449.045	-0	-500
395	19.7169	19.7336	19.7336	19.8799	0.734162	0.734162	0.734162	0.734162	51.2587	449.041	-0	-500
396	19.7166	19.7332	19.7332	19.8795	0.734162	0.734162	0.734162	0.734162	51.2576	449.037	-0	-500
397	19.7162	19.7329	19.7329	19.8792	0.734161	0.734161	0.734161	0.734161	51.2564	449.033	-0	-500
398	19.7159	19.7326	19.7326	19.8789	0.734161	0.734161	0.734161	0.734161	51.2553	449.029	-0	-500
399	19.7156	19.7323	19.7323	19.8786	0.734159	0.734159	0.734159	0.734159	51.2541	449.026	-0	-500
400	19.7153	19.732	19.732	19.8783	0.734158	0.734158	0.734158	0.734158	51.2529	449.021	-0	-500
401	19.715	19.7317	19.7317	19.878	0.734158	0.734158	0.734158	0.734158	51.2519	449.018	-0	-500
402	19.7147	19.7314	19.7314	19.8777	0.734157	0.734157	0.734157	0.734157	51.2507	449.014	-0	-500
403	19.7144	19.7311	19.7311	19.8774	0.734157	0.734157	0.734157	0.734157	51.2497	449.011	-0	-500
404	19.7142	19.7308	19.7309	19.8771	0.734156	0.734156	0.734156	0.734156	51.2487	449.007	-0	-500
405	19.7139	19.7306	19.7306	19.8769	0.734156	0.734156	0.734156	0.734156	51.2477	449.004	-0	-500
406	19.7136	19.7303	19.7303	19.8766	0.734154	0.734154	0.734154	0.734154	51.2466	449.001	-0	-500
407	19.7134	19.73	19.73	19.8763	0.734154	0.734154	0.734154	0.734154	51.2456	448.997	-0	-500
408	19.7131	19.7298	19.7298	19.8761	0.734153	0.734153	0.734153	0.734153	51.2447	448.994	-0	-500
409	19.7128	19.7295	19.7295	19.8758	0.734153	0.734153	0.734153	0.734153	51.2437	448.991	-0	-500
410	19.7126	19.7293	19.7293	19.8756	0.734152	0.734152	0.734152	0.734152	51.2428	448.988	-0	-500
411	19.7123	19.729	19.729	19.8753	0.734152	0.734152	0.734152	0.734152	51.2418	448.985	-0	-500
412	19.7121	19.7288	19.7288	19.8751	0.734151	0.734151	0.734151	0.734151	51.2409	448.981	-0	-500
413	19.7119	19.7285	19.7285	19.8748	0.734151	0.734151	0.734151	0.734151	51.24	448.979	-0	-500
414	19.7116	19.7283	19.7283	19.8746	0.734149	0.734149	0.734149	0.734149	51.2391	448.975	-0	-500
415	19.7114	19.7281	19.7281	19.8744	0.734149	0.734149	0.734149	0.734149	51.2383	448.973	-0	-500
416	19.7112	19.7278	19.7279	19.8741	0.734149	0.734149	0.734149	0.734149	51.2374	448.97	-0	-500
417	19.7109	19.7276	19.7276	19.8739	0.734148	0.734148	0.734148	0.734148	51.2366	448.967	-0	-500
418	19.7107	19.7274	19.7274	19.8737	0.734148	0.734148	0.734148	0.734148	51.2358	448.964	-0	-500
419	19.7105	19.7272	19.7272	19.8735	0.734147	0.734147	0.734147	0.734147	51.235	448.962	-0	-500
420	19.7103	19.727	19.727	19.8733	0.734147	0.734147	0.734147	0.734147	51.2342	448.959	-0	-500
421	19.7101	19.7268	19.7268	19.873	0.734146	0.734146	0.734146	0.734146	51.2333	448.956	-0	-500
422	19.7099	19.7266	19.7266	19.8728	0.734146	0.734146	0.734146	0.734146	51.2327	448.954	-0	-500
423	19.7097	19.7264	19.7264	19.8726	0.734146	0.734146	0.734146	0.734146	51.2319	448.951	-0	-500
424	19.7095	19.7262	19.7262	19.8724	0.734144	0.734144	0.734144	0.734144	51.2312	448.949	-0	-500
425	19.7093	19.726	19.726	19.8723	0.734144	0.734144	0.734144	0.734144	51.2305	448.946	-0	-500
426	19.7091	19.7258	19.7258	19.8721	0.734144	0.734144	0.734144	0.734144	51.2297	448.944	-0	-500
427	19.7089	19.7256	19.7256	19.8719	0.734143	0.734143	0.734143	0.734143	51.2291	448.942	-0	-500
428	19.7087	19.7254	19.7254	19.8717	0.734143	0.734143	0.734143	0.734143	51.2284	448.939	-0	-500
429	19.7085	19.7252	19.7252	19.8715	0.734142	0.734142	0.734142	0.734142	51.2276	448.937	-0	-500
430	19.7084	19.7251	19.7251	19.8713	0.734142	0.734142	0.734142	0.734142	51.227	448.935	-0	-500
431	19.7082	19.7249	19.7249	19.8712	0.734142	0.734142	0.734142	0.734142	51.2264	448.933	-0	-500
432	19.708	19.7247	19.7247	19.871	0.734141	0.734141	0.734141	0.734141	51.2256	448.93	-0	-500
433	19.7079	19.7245	19.7245	19.8708	0.734141	0.734141	0.734141	0.734141	51.2251	448.929	-0	-500
434	19.7077	19.7244	19.7244	19.8706	0.734141	0.734141	0.734141	0.734141	51.2245	448.926	-0	-500
435	19.7075	19.7242	19.7242	19.8705	0.734141	0.734141	0.734141	0.734141	51.2238	448.924	-0	-500
436	19.7074	19.7241	19.7241	19.8703	0.73414	0.73414	0.73414	0.73414	51.2233	448.923	-0	-500
437	19.7072	19.7239	19.7239	19.8702	0.73414	0.73414	0.73414	0.73414	51.2227	448.921	-0	-500
438	19.7071	19.7237	19.7237	19.87	0.73414	0.73414	0.73414	0.73414	51.2221	448.918	-0	-500
439	19.7069	19.7236	19.7236	19.8699	0.734138	0.734138	0.734138	0.734138	51.2216	448.917	-0	-500
440	19.7068	19.7234	19.7234	19.8697	0.734138	0.734138	0.734138	0.734138	51.221	448.915	-0	-500
441	19.7066	19.7233	19.7233	19.8696	0.734138	0.734138	0.734138	0.734138	51.2204	448.913	-0	-500
442	19.7065	19.7232	19.7232	19.8694	0.734137	0.734137	0.734137	0.734137	51.2198	448.911	-0	-500
443	19.7063	19.723	19.723	19.8693	0.734137	0.734137	0.734137	0.734137	51.2194	448.91	-0	-500
444	19.7062	19.7229	19.7229	19.8691	0.734137	0.734137	0.734137	0.734137	51.2189	448.908	-0	-500
445	19.7061	19.7227	19.7227	19.869	0.734137	0.734137	0.734137	0.734137	51.2183	448.906	-0	-500
446	19.7059	19.7226	19.7226	19.8689	0.734136	0.734136	0.734136	0.734136	51.2178	448.904	-0	-500
447	19.7058	19.7225	19.7225	19.8687	0.734136	0.734136	0.734136	0.734136	51.2174	448.903	-0	-500
448	19.7057	19.7223	19.7223	19.8686	0.734136	0.734136	0.734136	0.734136	51.2169	448.901	-0	-500
449	19.7055	19.7222	19.7222	19.8685	0.734136	0.734136	0.734136	0.734136	51.2164	448.899	-0	-500
450	19.7054	19.7221	19.7221	19.8684	0.734135	0.734135	0.734135	0.734135	51.216	448.898	-0	-500
451	19.7053	19.722	19.722	19.8682	0.734135	0.734135	0.734135	0.734135	51.2155	448.897	-0	-500
452	19.7052	19.7218	19.7219	19.8681	0.734135	0.734135	0.734135	0.734135	51.215	448.895	-0	-500
453	19.705	19.7217	19.7217	19.868	0.734135	0.734135	0.734135	0.734135	51.2146	448.893	-0	-500
454	19.7049	19.7216	19.7216	19.8679	0.734133	0.734133	0.734133	0.734133	51.2141	448.892	-0	-500
455	19.7048	19.7215	19.7215	19.8678	0.734133	0.734133	0.734133	0.734133	51.2138	448.891	-0	-500
456	19.7047	19.7214	19.7214	19.8677	0.734133	0.734133	0.734133	0.734133	51.2133	448.889	-0	-500
457	19.7046	19.7213	19.7213	19.8675	0.734133	0.734133	0.734133	0.734133	51.2129	448.888	-0	-500
458	19.7045	19.7212	19.7212	19.8674	0.734133	0.734133	0.734133	0.734133	51.2125	448.886	-0	-500
459	19.7044	19.7211	19.7211	19.8673	0.734132	0.734132	0.734132	0.734132	51.2121	448.885	-0	-500
460	19.7043	19.721	19.721	19.8672	0.734132	0.734132	0.734132	0.734132	51.2117	448.884	-0	-500
461	19.7042	19.7209	19.7209	19.8671	0.734132	0.734132	0.734132	0.734132	51.2113	448.882	-0	-500
462	19.7041	19.7208	19.7208	19.867	0.734132	0.734132	0.734132	0.734132	51.211	448.881	-0	-500
463	19.704	19.7207	19.7207	19.8669	0.734132	0.734132	0.734132	0.734132	51.2106	448.88	-0	-500
464	19.7039	19.7206	19.7206	19.8668	0.734131	0.734131	0.734131	0.734131	51.2102	448.879	-0	-500
465	19.7038	19.7205	19.7205	19.8667	0.734131	0.734131	0.734131	0.734131	51.2098	448.878	-0	-500
466	19.7037	19.7204	19.7204	19.8666	0.734131	0.734131	0.734131	0.734131	51.2095	448.876	-0	-500
467	19.7036	19.7203	19.7203	19.8665	0.734131	0.734131	0.734131	0.734131	51.2092	448.875	-0	-500
468	19.7035	19.7202	19.7202	19.8665	0.734131	0.734131	0.734131	0.734131	51.2088	448.874	-0	-500
469	19.7034	19.7201	19.7201	19.8664	0.73413	0.73413	0.73413	0.73413	51.2084	448.873	-0	-500
470	19.7033	19.72	19.72	19.8663	0.73413	0.73413	0.73413	0.73413	51.2082	448.872	-0	-500
471	19.7032	19.7199	19.7199	19.8662	0.73413	0.73413	0.73413	0.73413	51.2078	448.871	-0	-500
472	19.7032	19.7198	19.7198	19.8661	0.73413	0.73413	0.73413	0.73413	51.2075	448.87	-0	-500
473	19.7031	19.7198	19.7198	19.866	0.73413	0.73413	0.73413	0.73413	51.2072	448.869	-0	-500
474	19.703	19.7197	19.7197	19.8659	0.73413	0.73413	0.73413	0.73413	51.2069	448.868	-0	-500
475	19.7029	19.7196	19.7196	19.8659	0.734129	0.734129	0.734129	0.734129	51.2066	448.866	-0	-500
476	19.7028	19.7195	19.7195	19.8658	0.734129	0.734129	0.734129	0.734129	51.2063	448.866	-0	-500
477	19.7028	19.7194	19.7194	19.8657	0.734129	0.734129	0.734129	0.734129	51.206	448.865	-0	-500
478	19.7027	19.7194	19.7194	19.8656	0.734129	0.734129	0.734129	0.734129	51.2057	448.864	-0	-500
479	19.7026	19.7193	19.7193	19.8656	0.734129	0.734129	0.734129	0.734129	51.2055	448.863	-0	-500
480	19.7025	19.7192	19.7192	19.8655	0.734129	0.734129	0.734129	0.734129	51.2052	448.862	-0	-500
